Voltage (V)	Current (A)	Current Density (A/m^2)	 Dividing Wavelength (nm) = 490  Light Power Density (W/m^2) = 1076.543839  Total Light Power Density (W/m^2) = 1076.543839	
-0.199838	-5.680360E-5	-7.100450
-0.193158	-5.686265E-5	-7.107831
-0.186445	-5.627877E-5	-7.034846
-0.179707	-5.658988E-5	-7.073735
-0.173000	-5.618681E-5	-7.023351
-0.166288	-5.539379E-5	-6.924224
-0.159582	-5.552560E-5	-6.940700
-0.152840	-5.537102E-5	-6.921378
-0.146137	-5.483410E-5	-6.854262
-0.139431	-5.532378E-5	-6.915472
-0.132753	-5.403954E-5	-6.754943
-0.125974	-5.402080E-5	-6.752600
-0.119305	-5.361607E-5	-6.702009
-0.112600	-5.393417E-5	-6.741771
-0.105890	-5.330234E-5	-6.662793
-0.099181	-5.309702E-5	-6.637128
-0.092440	-5.310457E-5	-6.638071
-0.085738	-5.266568E-5	-6.583210
-0.079031	-5.278388E-5	-6.597985
-0.072348	-5.217647E-5	-6.522059
-0.065575	-5.254833E-5	-6.568541
-0.058903	-5.179655E-5	-6.474569
-0.052199	-5.153552E-5	-6.441940
-0.045486	-5.156490E-5	-6.445613
-0.038774	-5.088530E-5	-6.360663
-0.032038	-5.071824E-5	-6.339780
-0.025333	-5.061387E-5	-6.326734
-0.018624	-5.059002E-5	-6.323753
-0.011955	-5.038843E-5	-6.298554
-0.005172	-4.937749E-5	-6.172186
0.001463	-5.008907E-5	-6.261134
0.008172	-4.961090E-5	-6.201363
0.014880	-4.949490E-5	-6.186863
0.021623	-4.925148E-5	-6.156435
0.028338	-4.888540E-5	-6.110675
0.035010	-4.890659E-5	-6.113324
0.041716	-4.852878E-5	-6.066098
0.048423	-4.806892E-5	-6.008615
0.055170	-4.798200E-5	-5.997750
0.061879	-4.733215E-5	-5.916519
0.068587	-4.741322E-5	-5.926652
0.075259	-4.686284E-5	-5.857855
0.082035	-4.726718E-5	-5.908398
0.088712	-4.650297E-5	-5.812871
0.095421	-4.607720E-5	-5.759650
0.102124	-4.611953E-5	-5.764941
0.108831	-4.549861E-5	-5.687326
0.115571	-4.558511E-5	-5.698139
0.122283	-4.550127E-5	-5.687659
0.128959	-4.465882E-5	-5.582353
0.135665	-4.460310E-5	-5.575388
0.142406	-4.403738E-5	-5.504672
0.149122	-4.425552E-5	-5.531940
0.155828	-4.360293E-5	-5.450366
0.162536	-4.341447E-5	-5.426809
0.169275	-4.299976E-5	-5.374970
0.175981	-4.210086E-5	-5.262608
0.182694	-4.256776E-5	-5.320970
0.189374	-4.166467E-5	-5.208084
0.196079	-4.124305E-5	-5.155381
0.202822	-4.141035E-5	-5.176294
0.209526	-4.065535E-5	-5.081919
0.216241	-4.051094E-5	-5.063868
0.222946	-3.976609E-5	-4.970761
0.229686	-3.980356E-5	-4.975445
0.236393	-3.938569E-5	-4.923211
0.243071	-3.854546E-5	-4.818183
0.249777	-3.848116E-5	-4.810145
0.256515	-3.774831E-5	-4.718539
0.263220	-3.743625E-5	-4.679531
0.269934	-3.687981E-5	-4.609976
0.276642	-3.611990E-5	-4.514988
0.283319	-3.535661E-5	-4.419576
0.290093	-3.534739E-5	-4.418424
0.296764	-3.432606E-5	-4.290758
0.303477	-3.336461E-5	-4.170576
0.310186	-3.373647E-5	-4.217059
0.316924	-3.287023E-5	-4.108779
0.323631	-3.211875E-5	-4.014844
0.330342	-3.130286E-5	-3.912857
0.337023	-3.067547E-5	-3.834434
0.343727	-2.954442E-5	-3.693053
0.350472	-2.876828E-5	-3.596035
0.357179	-2.802082E-5	-3.502603
0.363880	-2.726120E-5	-3.407650
0.370597	-2.611440E-5	-3.264300
0.377336	-2.563179E-5	-3.203974
0.384044	-2.418482E-5	-3.023103
0.390718	-2.261991E-5	-2.827489
0.397421	-2.176554E-5	-2.720693
0.404167	-2.013109E-5	-2.516386
0.410876	-1.862131E-5	-2.327664
0.417581	-1.697813E-5	-2.122266
0.424291	-1.549399E-5	-1.936749
0.431006	-1.320145E-5	-1.650181
0.437749	-1.143549E-5	-1.429436
0.444534	-8.856903E-6	-1.107113
0.451130	-6.276986E-6	-0.784623
0.457821	-3.893802E-6	-0.486725
0.464856	-7.852614E-7	-0.098158
0.471244	2.691727E-6	0.336466
0.477964	6.869243E-6	0.858655
0.484674	1.056121E-5	1.320151
0.491414	1.525510E-5	1.906888
0.498132	2.070258E-5	2.587823
0.504807	2.622131E-5	3.277664
0.511514	3.274740E-5	4.093425
0.518213	4.034946E-5	5.043683
0.524959	4.787325E-5	5.984156
0.531662	5.721734E-5	7.152168
0.538368	6.765225E-5	8.456531
0.545030	7.976761E-5	9.970951
0.551801	9.332014E-5	11.665018
0.558500	0.000109	13.567238
0.565208	0.000126	15.726725
0.571916	0.000146	18.276087
0.578631	0.000169	21.072625
0.585364	0.000195	24.411963
0.592078	0.000225	28.069150
0.598761	0.000259	32.324450
0.605463	0.000297	37.094925
0.612202	0.000341	42.614238
0.618914	0.000391	48.862575
0.625622	0.000447	55.872500
0.632328	0.000510	63.795362
0.639064	0.000582	72.737975
0.645771	0.000661	82.617400
0.652444	0.000748	93.522188
0.659147	0.000846	105.734925
0.665854	0.000952	119.058787
0.672626	0.001070	133.760625
0.679332	0.001197	149.684875
0.686049	0.001335	166.861125
0.692724	0.001482	185.256625
0.699499	0.001642	205.191250
0.706206	0.001809	226.137375
0.712890	0.001987	248.348125
0.719592	0.002174	271.729125
0.726308	0.002371	296.359250
0.733038	0.002577	322.119250
0.739757	0.002791	348.910375
0.746461	0.003014	376.752000
0.753135	0.003243	405.364875
0.759906	0.003483	435.375000
0.766578	0.003727	465.843000
0.773286	0.003978	497.306375
0.780000	0.004237	529.565625
0.786742	0.004502	562.750250
0.793442	0.004772	596.497000
0.800144	0.005047	630.890625
