Voltage (V)	Current (A)	Current Density (A/m^2)	 Dividing Wavelength (nm) = 570  Light Power Density (W/m^2) = 1076.543839  Total Light Power Density (W/m^2) = 1076.543839	
-0.199832	-5.007010E-5	-6.258763
-0.193155	-5.032933E-5	-6.291166
-0.186444	-4.976432E-5	-6.220540
-0.179702	-4.942288E-5	-6.177860
-0.172998	-4.843893E-5	-6.054866
-0.166283	-4.880095E-5	-6.100119
-0.159577	-4.877610E-5	-6.097013
-0.152835	-4.855592E-5	-6.069490
-0.146129	-4.780983E-5	-5.976229
-0.139427	-4.789726E-5	-5.987157
-0.132749	-4.748068E-5	-5.935085
-0.125971	-4.696462E-5	-5.870578
-0.119299	-4.699988E-5	-5.874985
-0.112592	-4.648283E-5	-5.810354
-0.105884	-4.682562E-5	-5.853203
-0.099176	-4.634532E-5	-5.793165
-0.092435	-4.604405E-5	-5.755506
-0.085733	-4.602317E-5	-5.752896
-0.079031	-4.619046E-5	-5.773808
-0.072344	-4.553286E-5	-5.691608
-0.065575	-4.512417E-5	-5.640521
-0.058896	-4.461482E-5	-5.576853
-0.052191	-4.497794E-5	-5.622242
-0.045479	-4.423607E-5	-5.529509
-0.038770	-4.452499E-5	-5.565624
-0.032031	-4.381167E-5	-5.476459
-0.025323	-4.386522E-5	-5.483153
-0.018621	-4.375227E-5	-5.469034
-0.011945	-4.351613E-5	-5.439516
-0.005159	-4.346728E-5	-5.433410
0.001466	-4.386762E-5	-5.483453
0.008174	-4.278736E-5	-5.348420
0.014882	-4.276734E-5	-5.345918
0.021622	-4.252576E-5	-5.315720
0.028335	-4.226024E-5	-5.282530
0.035007	-4.178288E-5	-5.222860
0.041715	-4.159303E-5	-5.199129
0.048422	-4.208864E-5	-5.261080
0.055176	-4.102201E-5	-5.127751
0.061879	-4.105525E-5	-5.131906
0.068589	-4.113853E-5	-5.142316
0.075257	-4.025112E-5	-5.031390
0.082033	-3.985353E-5	-4.981691
0.088711	-4.008885E-5	-5.011106
0.095422	-3.973759E-5	-4.967199
0.102130	-3.946220E-5	-4.932775
0.108834	-3.933935E-5	-4.917419
0.115574	-3.905834E-5	-4.882293
0.122287	-3.831195E-5	-4.788994
0.128961	-3.839761E-5	-4.799701
0.135667	-3.816254E-5	-4.770318
0.142406	-3.780379E-5	-4.725474
0.149125	-3.755068E-5	-4.693835
0.155829	-3.719661E-5	-4.649576
0.162542	-3.684496E-5	-4.605620
0.169281	-3.652090E-5	-4.565112
0.175983	-3.646540E-5	-4.558175
0.182699	-3.612134E-5	-4.515168
0.189375	-3.579298E-5	-4.474122
0.196084	-3.496348E-5	-4.370435
0.202822	-3.470723E-5	-4.338404
0.209532	-3.444941E-5	-4.306176
0.216241	-3.403390E-5	-4.254238
0.222950	-3.358361E-5	-4.197951
0.229689	-3.318607E-5	-4.148259
0.236403	-3.284961E-5	-4.106201
0.243075	-3.274833E-5	-4.093541
0.249783	-3.225031E-5	-4.031289
0.256524	-3.153498E-5	-3.941873
0.263227	-3.097076E-5	-3.871345
0.269934	-3.031690E-5	-3.789613
0.276647	-3.016913E-5	-3.771141
0.283318	-2.927597E-5	-3.659496
0.290098	-2.869631E-5	-3.587039
0.296768	-2.797921E-5	-3.497401
0.303476	-2.777237E-5	-3.471546
0.310185	-2.739480E-5	-3.424350
0.316927	-2.680136E-5	-3.350170
0.323629	-2.591732E-5	-3.239665
0.330346	-2.518556E-5	-3.148195
0.337028	-2.476125E-5	-3.095156
0.343734	-2.384886E-5	-2.981107
0.350476	-2.287648E-5	-2.859560
0.357181	-2.196104E-5	-2.745130
0.363886	-2.115814E-5	-2.644767
0.370600	-2.017663E-5	-2.522079
0.377342	-1.887846E-5	-2.359808
0.384049	-1.854547E-5	-2.318184
0.390720	-1.689463E-5	-2.111829
0.397423	-1.571391E-5	-1.964239
0.404174	-1.428281E-5	-1.785351
0.410879	-1.269941E-5	-1.587426
0.417579	-1.156951E-5	-1.446189
0.424283	-9.767037E-6	-1.220880
0.431013	-7.239875E-6	-0.904984
0.437738	-5.987150E-6	-0.748394
0.444456	-3.317611E-6	-0.414701
0.451107	-9.337567E-7	-0.116720
0.457816	1.332901E-6	0.166613
0.464546	4.828765E-6	0.603596
0.471264	8.157912E-6	1.019739
0.477976	1.173050E-5	1.466313
0.484679	1.551876E-5	1.939845
0.491423	2.032116E-5	2.540145
0.498135	2.519749E-5	3.149686
0.504809	3.089523E-5	3.861904
0.511514	3.763509E-5	4.704386
0.518217	4.419221E-5	5.524026
0.524965	5.264767E-5	6.580959
0.531662	6.136260E-5	7.670325
0.538372	7.194575E-5	8.993219
0.545040	8.314374E-5	10.392968
0.551801	9.672638E-5	12.090798
0.558501	0.000112	13.954963
0.565207	0.000129	16.078663
0.571920	0.000148	18.543513
0.578626	0.000171	21.323350
0.585369	0.000197	24.571100
0.592082	0.000226	28.215400
0.598757	0.000259	32.376850
0.605466	0.000298	37.198200
0.612205	0.000341	42.577713
0.618916	0.000390	48.716225
0.625620	0.000445	55.669125
0.632331	0.000508	63.452713
0.639066	0.000578	72.262863
0.645782	0.000657	82.075225
0.652450	0.000743	92.898100
0.659150	0.000840	104.993212
0.665861	0.000946	118.206900
0.672636	0.001063	132.829250
0.679346	0.001189	148.588875
0.686062	0.001325	165.654500
0.692741	0.001471	183.897125
0.699510	0.001629	203.687250
0.706223	0.001797	224.623500
0.712900	0.001973	246.620625
0.719609	0.002159	269.918500
0.726317	0.002355	294.419250
0.733054	0.002561	320.137375
0.739766	0.002775	346.852750
0.746479	0.002997	374.608250
0.753153	0.003226	403.189625
0.759926	0.003465	433.112750
0.766596	0.003708	463.497250
0.773305	0.003959	494.903250
0.780016	0.004217	527.112625
0.786755	0.004482	560.193875
0.793458	0.004751	593.891250
0.800164	0.005026	628.310750
