Voltage (V)	Current (A)	Current Density (A/m^2)	 Dividing Wavelength (nm) = 680  Light Power Density (W/m^2) = 1076.543839  Total Light Power Density (W/m^2) = 1076.543839	
-0.199871	-3.615361E-5	-4.519201
-0.193184	-3.555467E-5	-4.444334
-0.186473	-3.578835E-5	-4.473544
-0.179737	-3.524955E-5	-4.406194
-0.173032	-3.484897E-5	-4.356121
-0.166320	-3.507598E-5	-4.384498
-0.159612	-3.440244E-5	-4.300305
-0.152869	-3.435382E-5	-4.294227
-0.146163	-3.404178E-5	-4.255223
-0.139455	-3.369959E-5	-4.212449
-0.132779	-3.366306E-5	-4.207883
-0.126003	-3.328369E-5	-4.160461
-0.119320	-3.308881E-5	-4.136101
-0.112618	-3.286053E-5	-4.107566
-0.105904	-3.274503E-5	-4.093129
-0.099195	-3.239769E-5	-4.049711
-0.092457	-3.208145E-5	-4.010181
-0.085750	-3.180140E-5	-3.975175
-0.079040	-3.148619E-5	-3.935774
-0.072365	-3.179870E-5	-3.974838
-0.065589	-3.150868E-5	-3.938585
-0.058917	-3.106533E-5	-3.883166
-0.052209	-3.085665E-5	-3.857081
-0.045499	-3.088103E-5	-3.860129
-0.038792	-3.048300E-5	-3.810375
-0.032050	-3.038722E-5	-3.798403
-0.025347	-3.004787E-5	-3.755984
-0.018637	-2.985832E-5	-3.732290
-0.011967	-2.964806E-5	-3.706008
-0.005185	-2.971153E-5	-3.713941
0.001453	-2.939202E-5	-3.674003
0.008157	-2.921521E-5	-3.651901
0.014863	-2.863859E-5	-3.579824
0.021612	-2.836957E-5	-3.546196
0.028327	-2.828889E-5	-3.536111
0.034995	-2.796832E-5	-3.496040
0.041700	-2.775080E-5	-3.468850
0.048401	-2.782709E-5	-3.478386
0.055155	-2.813000E-5	-3.516250
0.061857	-2.764768E-5	-3.455960
0.068561	-2.702936E-5	-3.378670
0.075237	-2.693831E-5	-3.367289
0.082011	-2.680519E-5	-3.350649
0.088693	-2.667071E-5	-3.333839
0.095403	-2.624484E-5	-3.280605
0.102109	-2.631574E-5	-3.289468
0.108813	-2.584296E-5	-3.230370
0.115559	-2.566279E-5	-3.207849
0.122267	-2.556473E-5	-3.195591
0.128940	-2.514582E-5	-3.143228
0.135649	-2.479908E-5	-3.099885
0.142389	-2.461207E-5	-3.076509
0.149101	-2.446641E-5	-3.058301
0.155812	-2.391792E-5	-2.989740
0.162523	-2.338281E-5	-2.922851
0.169261	-2.351245E-5	-2.939056
0.175962	-2.294383E-5	-2.867979
0.182684	-2.234724E-5	-2.793405
0.189357	-2.244283E-5	-2.805354
0.196063	-2.177569E-5	-2.721961
0.202809	-2.171862E-5	-2.714828
0.209513	-2.155501E-5	-2.694376
0.216231	-2.089395E-5	-2.611744
0.222936	-2.071952E-5	-2.589940
0.229672	-1.997684E-5	-2.497105
0.236379	-2.001914E-5	-2.502393
0.243060	-1.953645E-5	-2.442056
0.249764	-1.925440E-5	-2.406800
0.256505	-1.890073E-5	-2.362591
0.263210	-1.867608E-5	-2.334510
0.269915	-1.815467E-5	-2.269334
0.276629	-1.742754E-5	-2.178443
0.283306	-1.699192E-5	-2.123990
0.290077	-1.650538E-5	-2.063173
0.296754	-1.611652E-5	-2.014565
0.303463	-1.546552E-5	-1.933190
0.310170	-1.554354E-5	-1.942943
0.316899	-1.444768E-5	-1.805960
0.323616	-1.318264E-5	-1.647830
0.330329	-1.283632E-5	-1.604540
0.337010	-1.252608E-5	-1.565760
0.343717	-1.179619E-5	-1.474524
0.350459	-1.065104E-5	-1.331380
0.357157	-1.019191E-5	-1.273989
0.363862	-9.060566E-6	-1.132571
0.370580	-8.478490E-6	-1.059811
0.377307	-7.695357E-6	-0.961920
0.384013	-6.465375E-6	-0.808172
0.390700	-5.338992E-6	-0.667374
0.397402	-4.275404E-6	-0.534425
0.404150	-2.517534E-6	-0.314692
0.410853	-1.605988E-6	-0.200749
0.417515	-1.764993E-7	-0.022062
0.424249	1.820992E-6	0.227624
0.430963	3.487990E-6	0.435999
0.437699	5.139695E-6	0.642462
0.444397	7.409897E-6	0.926237
0.451021	9.808677E-6	1.226085
0.457789	1.204180E-5	1.505225
0.464542	1.499914E-5	1.874893
0.471249	1.817689E-5	2.272111
0.477967	2.205077E-5	2.756346
0.484662	2.575709E-5	3.219636
0.491404	3.032914E-5	3.791143
0.498118	3.492317E-5	4.365396
0.504791	4.028187E-5	5.035234
0.511490	4.625941E-5	5.782426
0.518196	5.321423E-5	6.651779
0.524946	6.134943E-5	7.668679
0.531645	6.983412E-5	8.729265
0.538354	7.972328E-5	9.965410
0.545017	9.102778E-5	11.378472
0.551657	0.000104	12.996163
0.558492	0.000118	14.796825
0.565202	0.000135	16.901488
0.571904	0.000154	19.258900
0.578608	0.000176	21.949150
0.585348	0.000201	25.090463
0.592065	0.000229	28.663875
0.598753	0.000261	32.655413
0.605456	0.000298	37.271662
0.612190	0.000341	42.592738
0.618898	0.000389	48.578988
0.625609	0.000442	55.297625
0.632318	0.000504	62.940513
0.639054	0.000573	71.610088
0.645760	0.000650	81.239738
0.652435	0.000735	91.887150
0.659139	0.000830	103.734438
0.665845	0.000934	116.736262
0.672606	0.001049	131.063125
0.679317	0.001173	146.603875
0.686033	0.001308	163.528875
0.692706	0.001452	181.532625
0.699480	0.001609	201.127125
0.706189	0.001775	221.817375
0.712873	0.001949	243.623375
0.719572	0.002134	266.777875
0.726288	0.002329	291.105750
0.733022	0.002533	316.655000
0.739736	0.002745	343.175125
0.746447	0.002966	370.776750
0.753117	0.003194	399.203000
0.759896	0.003432	429.002250
0.766562	0.003674	459.270875
0.773276	0.003924	490.560875
0.779984	0.004181	522.673750
0.786731	0.004446	555.767875
0.793435	0.004715	589.334750
0.800137	0.004989	623.642125
