Voltage (V)	Current (A)	Current Density (A/m^2)	 Dividing Wavelength (nm) = 560  Light Power Density (W/m^2) = 1076.543839  Total Light Power Density (W/m^2) = 1076.543839	
-0.199833	-5.064112E-5	-6.330140
-0.193152	-5.059921E-5	-6.324901
-0.186435	-5.087489E-5	-6.359361
-0.179702	-5.017516E-5	-6.271895
-0.172994	-4.972037E-5	-6.215046
-0.166283	-4.996886E-5	-6.246107
-0.159575	-4.936921E-5	-6.171151
-0.152834	-4.910927E-5	-6.138659
-0.146130	-4.876922E-5	-6.096153
-0.139422	-4.863083E-5	-6.078854
-0.132743	-4.821048E-5	-6.026310
-0.125965	-4.818128E-5	-6.022660
-0.119292	-4.802535E-5	-6.003169
-0.112587	-4.758467E-5	-5.948084
-0.105882	-4.731724E-5	-5.914655
-0.099173	-4.707066E-5	-5.883833
-0.092430	-4.693514E-5	-5.866893
-0.085725	-4.654278E-5	-5.817848
-0.079018	-4.639958E-5	-5.799948
-0.072344	-4.657600E-5	-5.822000
-0.065569	-4.575523E-5	-5.719404
-0.058894	-4.584547E-5	-5.730684
-0.052192	-4.549033E-5	-5.686291
-0.045478	-4.516739E-5	-5.645924
-0.038770	-4.544028E-5	-5.680035
-0.032029	-4.508295E-5	-5.635369
-0.025322	-4.507400E-5	-5.634250
-0.018614	-4.448245E-5	-5.560306
-0.011943	-4.416717E-5	-5.520896
-0.005163	-4.414571E-5	-5.518214
0.001469	-4.418555E-5	-5.523194
0.008171	-4.332147E-5	-5.415184
0.014885	-4.348501E-5	-5.435626
0.021621	-4.322811E-5	-5.403514
0.028338	-4.269027E-5	-5.336284
0.035010	-4.288657E-5	-5.360821
0.041713	-4.243180E-5	-5.303975
0.048428	-4.228920E-5	-5.286150
0.055174	-4.214426E-5	-5.268033
0.061888	-4.202584E-5	-5.253230
0.068593	-4.149606E-5	-5.187007
0.075260	-4.092987E-5	-5.116234
0.082035	-4.070758E-5	-5.088448
0.088718	-4.062225E-5	-5.077781
0.095425	-4.042452E-5	-5.053065
0.102130	-4.046722E-5	-5.058402
0.108837	-3.943609E-5	-4.929511
0.115576	-3.967095E-5	-4.958869
0.122291	-3.982904E-5	-4.978630
0.128965	-3.906809E-5	-4.883511
0.135670	-3.830135E-5	-4.787669
0.142410	-3.830495E-5	-4.788119
0.149124	-3.836813E-5	-4.796016
0.155827	-3.797384E-5	-4.746730
0.162543	-3.725854E-5	-4.657318
0.169282	-3.727268E-5	-4.659085
0.175986	-3.684379E-5	-4.605474
0.182703	-3.638832E-5	-4.548540
0.189375	-3.712266E-5	-4.640333
0.196084	-3.601602E-5	-4.502002
0.202825	-3.562247E-5	-4.452809
0.209536	-3.506269E-5	-4.382836
0.216245	-3.466649E-5	-4.333311
0.222952	-3.416615E-5	-4.270769
0.229692	-3.371905E-5	-4.214881
0.236401	-3.347685E-5	-4.184606
0.243076	-3.301215E-5	-4.126519
0.249782	-3.264072E-5	-4.080090
0.256524	-3.251301E-5	-4.064126
0.263228	-3.222221E-5	-4.027776
0.269938	-3.126664E-5	-3.908330
0.276648	-3.063281E-5	-3.829101
0.283323	-3.059346E-5	-3.824183
0.290101	-2.956525E-5	-3.695656
0.296769	-2.916931E-5	-3.646164
0.303481	-2.846898E-5	-3.558623
0.310188	-2.787738E-5	-3.484673
0.316932	-2.742391E-5	-3.427989
0.323636	-2.693366E-5	-3.366707
0.330347	-2.608686E-5	-3.260858
0.337027	-2.531506E-5	-3.164383
0.343739	-2.489113E-5	-3.111391
0.350476	-2.414383E-5	-3.017979
0.357185	-2.299893E-5	-2.874866
0.363887	-2.255290E-5	-2.819113
0.370607	-2.155393E-5	-2.694241
0.377343	-2.016650E-5	-2.520813
0.384049	-1.923781E-5	-2.404726
0.390723	-1.823115E-5	-2.278894
0.397430	-1.673082E-5	-2.091353
0.404178	-1.507266E-5	-1.884083
0.410884	-1.403482E-5	-1.754352
0.417589	-1.207830E-5	-1.509788
0.424297	-1.035645E-5	-1.294556
0.431002	-8.408827E-6	-1.051103
0.437747	-6.855323E-6	-0.856915
0.444457	-4.496943E-6	-0.562118
0.451115	-2.023024E-6	-0.252878
0.457834	1.053785E-6	0.131723
0.464573	4.233318E-6	0.529165
0.471257	7.237709E-6	0.904714
0.477984	1.112365E-5	1.390456
0.484690	1.486066E-5	1.857583
0.491425	1.944940E-5	2.431175
0.498140	2.412350E-5	3.015437
0.504813	2.986387E-5	3.732984
0.511516	3.592826E-5	4.491033
0.518219	4.297632E-5	5.372040
0.524964	5.138834E-5	6.423542
0.531659	6.083366E-5	7.604208
0.538370	7.090898E-5	8.863622
0.545042	8.238089E-5	10.297611
0.551809	9.611552E-5	12.014440
0.558502	0.000111	13.835488
0.565215	0.000129	16.071162
0.571927	0.000147	18.431250
0.578634	0.000171	21.330163
0.585369	0.000196	24.472000
0.592085	0.000226	28.202700
0.598765	0.000259	32.316850
0.605470	0.000297	37.161025
0.612205	0.000340	42.556938
0.618922	0.000390	48.697738
0.625629	0.000445	55.632063
0.632337	0.000508	63.481200
0.639071	0.000579	72.327963
0.645777	0.000657	82.070275
0.652452	0.000744	92.976325
0.659158	0.000840	105.051525
0.665859	0.000947	118.325812
0.672640	0.001064	132.943500
0.679352	0.001190	148.703500
0.686061	0.001326	165.777500
0.692737	0.001473	184.102625
0.699512	0.001631	203.899500
0.706218	0.001798	224.787875
0.712898	0.001975	246.837500
0.719608	0.002161	270.132875
0.726322	0.002358	294.697875
0.733058	0.002564	320.475375
0.739773	0.002777	347.164375
0.746484	0.002999	374.898750
0.753159	0.003228	403.509250
0.759931	0.003467	433.396750
0.766601	0.003711	463.816000
0.773310	0.003962	495.200750
0.780016	0.004219	527.430875
0.786758	0.004485	560.603250
0.793465	0.004754	594.291125
0.800170	0.005030	628.705375
