Voltage (V)	Current (A)	Current Density (A/m^2)	 Dividing Wavelength (nm) = 740  Light Power Density (W/m^2) = 1076.543839  Total Light Power Density (W/m^2) = 1076.543839	
-0.199923	-0.000301	-37.675875
-0.193245	-0.000289	-36.069300
-0.186528	-0.000276	-34.448412
-0.179795	-0.000263	-32.894275
-0.173089	-0.000252	-31.443275
-0.166386	-0.000240	-29.986438
-0.159673	-0.000228	-28.536137
-0.152927	-0.000217	-27.144963
-0.146229	-0.000207	-25.812988
-0.139515	-0.000195	-24.435675
-0.132842	-0.000185	-23.182087
-0.126073	-0.000175	-21.896650
-0.119390	-0.000165	-20.651862
-0.112689	-0.000156	-19.501725
-0.105973	-0.000147	-18.341163
-0.099272	-0.000138	-17.230338
-0.092532	-0.000128	-16.056188
-0.085824	-0.000120	-15.040388
-0.079119	-0.000112	-13.973088
-0.072439	-0.000103	-12.895900
-0.065665	-9.505457E-5	-11.881821
-0.058990	-8.752428E-5	-10.940535
-0.052279	-7.976002E-5	-9.970002
-0.045570	-7.191292E-5	-8.989115
-0.038863	-6.463923E-5	-8.079904
-0.032125	-5.696929E-5	-7.121161
-0.025416	-5.012885E-5	-6.266106
-0.018713	-4.294762E-5	-5.368453
-0.012039	-3.586790E-5	-4.483488
-0.005261	-2.879621E-5	-3.599526
0.001389	-2.161108E-5	-2.701385
0.008087	-1.487833E-5	-1.859791
0.014815	-7.412493E-6	-0.926562
0.021624	-5.870763E-7	-0.073385
0.028263	6.671503E-6	0.833938
0.034922	1.337565E-5	1.671956
0.041620	2.103601E-5	2.629501
0.048330	2.827773E-5	3.534716
0.055076	3.547746E-5	4.434683
0.061783	4.290745E-5	5.363431
0.068485	5.082815E-5	6.353519
0.075155	5.887964E-5	7.359955
0.081931	6.654461E-5	8.318076
0.088608	7.464941E-5	9.331176
0.095308	8.293359E-5	10.366699
0.102005	9.130800E-5	11.413500
0.108711	0.000100	12.515900
0.115485	0.000109	13.658588
0.122198	0.000119	14.820350
0.128870	0.000127	15.929013
0.135572	0.000137	17.168175
0.142307	0.000147	18.350587
0.149033	0.000157	19.679513
0.155740	0.000168	20.968525
0.162447	0.000178	22.279188
0.169183	0.000189	23.658288
0.175886	0.000200	25.058263
0.182598	0.000212	26.509538
0.189269	0.000224	27.957500
0.195980	0.000236	29.471637
0.202723	0.000248	31.000325
0.209419	0.000261	32.608638
0.216140	0.000274	34.231738
0.222845	0.000287	35.921188
0.229589	0.000301	37.685000
0.236292	0.000315	39.421950
0.242963	0.000330	41.247675
0.249677	0.000345	43.099600
0.256411	0.000360	45.042475
0.263124	0.000376	46.981075
0.269820	0.000392	48.993113
0.276537	0.000409	51.085050
0.283208	0.000426	53.219375
0.289977	0.000443	55.413913
0.296655	0.000461	57.633187
0.303366	0.000480	59.956188
0.310073	0.000499	62.331975
0.316813	0.000518	64.786100
0.323520	0.000538	67.302425
0.330218	0.000559	69.891525
0.336908	0.000580	72.543225
0.343607	0.000602	75.251550
0.350360	0.000625	78.093088
0.357067	0.000648	80.944725
0.363771	0.000671	83.923950
0.370471	0.000696	87.015250
0.377215	0.000722	90.212163
0.383924	0.000748	93.482138
0.390596	0.000775	96.841625
0.397299	0.000803	100.322950
0.404046	0.000832	103.981350
0.410736	0.000862	107.697213
0.417438	0.000892	111.560750
0.424143	0.000924	115.559125
0.430867	0.000958	119.747112
0.437605	0.000992	124.056188
0.444317	0.001028	128.518125
0.451023	0.001065	133.136375
0.457728	0.001103	137.928500
0.464477	0.001144	143.022000
0.471189	0.001186	148.259125
0.477895	0.001230	153.758250
0.484594	0.001276	159.466625
0.491347	0.001323	165.425250
0.498054	0.001373	171.680750
0.504722	0.001426	178.210625
0.511430	0.001480	185.018625
0.518144	0.001537	192.180875
0.524888	0.001598	199.733000
0.531584	0.001661	207.644000
0.538298	0.001727	215.924250
0.544970	0.001797	224.671125
0.551742	0.001871	233.886750
0.558423	0.001948	243.492500
0.565128	0.002029	253.659875
0.571833	0.002115	264.356125
0.578546	0.002205	275.589750
0.585279	0.002300	287.454250
0.591991	0.002399	299.874250
0.598672	0.002504	312.937625
0.605374	0.002613	326.655875
0.612115	0.002729	341.130750
0.618824	0.002850	356.279625
0.625532	0.002977	372.097125
0.632239	0.003109	388.670875
0.638957	0.003248	406.042625
0.645688	0.003394	424.206375
0.652362	0.003544	443.010500
0.659066	0.003701	462.655875
0.665782	0.003865	483.116625
0.672515	0.004035	504.408625
0.679212	0.004211	526.437125
0.685933	0.004394	549.266000
0.692599	0.004582	572.744750
0.699372	0.004779	597.352875
0.706083	0.004980	622.487500
0.712759	0.005186	648.210875
0.719464	0.005399	674.820625
0.726173	0.005617	702.178750
0.732901	0.005843	730.315875
0.739614	0.006072	758.986375
0.746330	0.006307	788.392375
0.753007	0.006546	818.296000
0.759775	0.006794	849.239500
0.766448	0.007043	880.350250
0.773161	0.007298	912.220375
0.779864	0.007557	944.669000
0.786602	0.007823	977.849875
0.793319	0.008091	1011.386500
0.800026	0.008364	1045.445875
