Voltage (V)	Current (A)	Current Density (A/m^2)	 Dividing Wavelength (nm) = 480  Light Power Density (W/m^2) = 1107.265488  Total Light Power Density (W/m^2) = 1107.265488	
-0.199884	-0.000162	-20.269763
-0.189804	-0.000162	-20.233875
-0.179754	-0.000162	-20.253638
-0.169641	-0.000159	-19.877175
-0.159526	-0.000161	-20.081350
-0.149480	-0.000161	-20.116100
-0.139366	-0.000160	-19.994312
-0.129294	-0.000161	-20.107625
-0.119244	-0.000159	-19.919000
-0.109130	-0.000159	-19.929063
-0.099020	-0.000160	-20.021425
-0.088975	-0.000158	-19.769300
-0.078863	-0.000157	-19.641775
-0.068783	-0.000156	-19.460700
-0.058666	-0.000158	-19.690413
-0.048618	-0.000158	-19.767700
-0.038508	-0.000158	-19.801300
-0.028404	-0.000158	-19.738913
-0.018351	-0.000156	-19.535713
-0.008274	-0.000156	-19.521275
0.001795	-0.000155	-19.428425
0.011845	-0.000156	-19.503938
0.021919	-0.000155	-19.407900
0.032035	-0.000154	-19.276688
0.042079	-0.000155	-19.410325
0.052198	-0.000154	-19.298662
0.062279	-0.000153	-19.078725
0.072353	-0.000154	-19.239675
0.082433	-0.000154	-19.254188
0.092542	-0.000152	-19.008900
0.102593	-0.000153	-19.133650
0.112703	-0.000152	-19.019488
0.122786	-0.000151	-18.877600
0.132828	-0.000151	-18.871588
0.142935	-0.000150	-18.793563
0.153051	-0.000150	-18.751413
0.163139	-0.000150	-18.764637
0.173184	-0.000149	-18.651363
0.183295	-0.000148	-18.470625
0.193404	-0.000148	-18.541600
0.203455	-0.000149	-18.585325
0.213533	-0.000148	-18.490012
0.223648	-0.000148	-18.459638
0.233693	-0.000146	-18.210488
0.243801	-0.000147	-18.355513
0.253881	-0.000145	-18.179625
0.263959	-0.000144	-18.052475
0.274039	-0.000143	-17.915913
0.284150	-0.000144	-18.053538
0.294201	-0.000144	-18.002900
0.304308	-0.000143	-17.853925
0.314385	-0.000142	-17.792787
0.324432	-0.000142	-17.761925
0.334548	-0.000142	-17.740237
0.344660	-0.000140	-17.533738
0.354702	-0.000140	-17.480113
0.364783	-0.000139	-17.415387
0.374897	-0.000140	-17.533975
0.384943	-0.000139	-17.362325
0.395056	-0.000138	-17.210800
0.405134	-0.000137	-17.071500
0.415243	-0.000136	-16.952575
0.425292	-0.000136	-16.941313
0.435406	-0.000134	-16.810762
0.445483	-0.000133	-16.625288
0.455567	-0.000133	-16.588712
0.465639	-0.000131	-16.381475
0.475760	-0.000131	-16.316713
0.485799	-0.000129	-16.068188
0.495916	-0.000128	-16.005562
0.505996	-0.000127	-15.841150
0.516039	-0.000125	-15.589700
0.526150	-0.000123	-15.424175
0.536258	-0.000122	-15.228537
0.546310	-0.000120	-14.982700
0.556386	-0.000118	-14.758088
0.566501	-0.000115	-14.418175
0.576544	-0.000113	-14.147075
0.586649	-0.000112	-13.958900
0.596733	-0.000108	-13.481900
0.606823	-0.000104	-12.949050
0.616900	-0.000102	-12.693613
0.626998	-9.791365E-5	-12.239206
0.637041	-9.365415E-5	-11.706769
0.647156	-8.752073E-5	-10.940091
0.657237	-8.253068E-5	-10.316335
0.667345	-7.624401E-5	-9.530501
0.677390	-6.892783E-5	-8.615979
0.687502	-5.920696E-5	-7.400870
0.697578	-4.809374E-5	-6.011718
0.707628	-3.412591E-5	-4.265739
0.717742	-1.863653E-5	-2.329566
0.727842	5.137679E-7	0.064221
0.737861	2.458886E-5	3.073608
0.747939	5.544730E-5	6.930913
0.758058	9.516748E-5	11.895935
0.768110	0.000144	18.038750
0.778232	0.000208	25.947638
0.788342	0.000288	35.974712
0.798396	0.000387	48.358363
0.808464	0.000510	63.740437
0.818577	0.000659	82.344787
0.828628	0.000837	104.664100
0.838789	0.001046	130.716250
0.848875	0.001286	160.712625
0.858915	0.001555	194.414625
0.869030	0.001856	232.008250
0.879151	0.002186	273.211875
0.889240	0.002540	317.505625
0.899281	0.002916	364.512250
0.909406	0.003317	414.671000
0.919505	0.003737	467.132750
0.929555	0.004172	521.532500
0.939661	0.004626	578.254375
0.949740	0.005093	636.593375
0.959787	0.005571	696.387000
0.969889	0.006064	757.956125
0.980007	0.006568	820.941875
0.990048	0.007078	884.695500
1.000131	0.007599	949.813750
