Voltage (V)	Current (A)	Current Density (A/m^2)	 Dividing Wavelength (nm) = 770  Light Power Density (W/m^2) = 1076.543839  Total Light Power Density (W/m^2) = 1076.543839	
-0.199930	-0.000413	-51.675113
-0.193248	-0.000417	-52.127450
-0.186538	-0.000423	-52.879338
-0.179804	-0.000416	-51.972288
-0.173093	-0.000418	-52.249738
-0.166380	-0.000419	-52.352900
-0.159675	-0.000417	-52.067975
-0.152941	-0.000410	-51.230663
-0.146231	-0.000422	-52.731138
-0.139522	-0.000418	-52.226438
-0.132846	-0.000416	-52.045400
-0.126066	-0.000408	-51.004675
-0.119398	-0.000419	-52.394487
-0.112687	-0.000413	-51.578513
-0.105985	-0.000407	-50.856887
-0.099272	-0.000418	-52.204087
-0.092530	-0.000422	-52.744125
-0.085827	-0.000409	-51.076275
-0.079122	-0.000414	-51.763137
-0.072443	-0.000413	-51.625075
-0.065672	-0.000416	-51.986725
-0.058998	-0.000417	-52.107188
-0.052289	-0.000414	-51.774062
-0.045580	-0.000420	-52.534287
-0.038871	-0.000413	-51.629863
-0.032128	-0.000411	-51.434013
-0.025421	-0.000411	-51.322075
-0.018716	-0.000410	-51.276288
-0.012043	-0.000414	-51.725138
-0.005276	-0.000414	-51.802313
0.001386	-0.000414	-51.794125
0.008092	-0.000413	-51.655563
0.014798	-0.000408	-51.009588
0.021543	-0.000405	-50.667088
0.028259	-0.000409	-51.073813
0.034928	-0.000408	-51.026650
0.041636	-0.000411	-51.370213
0.048342	-0.000414	-51.711388
0.055092	-0.000407	-50.902800
0.061802	-0.000408	-50.941887
0.068511	-0.000408	-50.983863
0.075178	-0.000401	-50.122150
0.081955	-0.000408	-50.978600
0.088633	-0.000409	-51.171938
0.095341	-0.000407	-50.927287
0.102046	-0.000404	-50.557013
0.108749	-0.000407	-50.823475
0.115493	-0.000404	-50.559238
0.122204	-0.000408	-50.985613
0.128884	-0.000404	-50.484412
0.135586	-0.000401	-50.114125
0.142329	-0.000412	-51.440750
0.149040	-0.000402	-50.279900
0.155749	-0.000398	-49.794800
0.162459	-0.000399	-49.826287
0.169197	-0.000399	-49.936875
0.175904	-0.000403	-50.425775
0.182615	-0.000402	-50.205875
0.189291	-0.000397	-49.600188
0.195997	-0.000400	-50.019362
0.202739	-0.000400	-49.977438
0.209441	-0.000393	-49.139963
0.216156	-0.000396	-49.459088
0.222861	-0.000393	-49.152725
0.229605	-0.000384	-47.999887
0.236311	-0.000385	-48.066813
0.242989	-0.000396	-49.472637
0.249696	-0.000394	-49.227762
0.256435	-0.000392	-48.979775
0.263142	-0.000387	-48.375350
0.269849	-0.000393	-49.093863
0.276561	-0.000386	-48.239950
0.283239	-0.000385	-48.093338
0.290011	-0.000384	-47.948150
0.296684	-0.000383	-47.874925
0.303395	-0.000380	-47.461763
0.310105	-0.000379	-47.399938
0.316843	-0.000376	-47.050625
0.323549	-0.000384	-48.030575
0.330263	-0.000378	-47.229525
0.336940	-0.000372	-46.517663
0.343644	-0.000384	-48.021850
0.350389	-0.000371	-46.342313
0.357098	-0.000363	-45.406562
0.363807	-0.000373	-46.600887
0.370516	-0.000366	-45.793238
0.377257	-0.000361	-45.163300
0.383960	-0.000358	-44.811800
0.390631	-0.000360	-45.010238
0.397339	-0.000357	-44.595450
0.404089	-0.000349	-43.604900
0.410794	-0.000350	-43.784188
0.417503	-0.000344	-42.965725
0.424207	-0.000344	-42.953313
0.430926	-0.000335	-41.833275
0.437665	-0.000332	-41.468925
0.444370	-0.000328	-41.049638
0.451042	-0.000323	-40.371450
0.457751	-0.000320	-39.998938
0.464497	-0.000310	-38.700800
0.471207	-0.000300	-37.554887
0.477919	-0.000298	-37.274025
0.484619	-0.000287	-35.827650
0.491358	-0.000279	-34.883150
0.498072	-0.000271	-33.894450
0.504751	-0.000259	-32.365037
0.511455	-0.000249	-31.065188
0.518161	-0.000238	-29.779363
0.524904	-0.000221	-27.685338
0.531611	-0.000207	-25.817438
0.538322	-0.000189	-23.680875
0.544988	-0.000170	-21.221912
0.551763	-0.000151	-18.900425
0.558438	-0.000127	-15.936012
0.565154	-0.000109	-13.613488
0.571879	-7.717512E-5	-9.646890
0.578571	-5.198750E-5	-6.498438
0.585303	-2.263035E-5	-2.828794
0.592006	1.388216E-5	1.735270
0.598676	4.921744E-5	6.152180
0.605369	8.637246E-5	10.796558
0.612126	0.000129	16.083700
0.618840	0.000173	21.660963
0.625547	0.000223	27.912625
0.632252	0.000275	34.339000
0.638989	0.000330	41.191012
0.645703	0.000390	48.787250
0.652374	0.000452	56.457988
0.659082	0.000518	64.742013
0.665788	0.000589	73.661675
0.672521	0.000663	82.856688
0.679222	0.000742	92.726012
0.685932	0.000824	103.008275
0.692608	0.000911	113.836400
0.699378	0.001002	125.234375
0.706129	0.001097	137.143625
0.712812	0.001196	149.470875
0.719519	0.001298	162.308750
0.726230	0.001405	175.684000
0.732967	0.001517	189.623375
0.739682	0.001632	203.990375
0.746395	0.001751	218.884750
0.753072	0.001874	234.242500
0.759837	0.002001	250.080750
0.766518	0.002131	266.408500
0.773223	0.002265	283.096250
0.779937	0.002403	300.407375
0.786676	0.002546	318.252750
0.793378	0.002691	336.354875
0.800090	0.002840	354.948250
