Voltage (V)	Current (A)	Current Density (A/m^2)	 Dividing Wavelength (nm) = 620  Light Power Density (W/m^2) = 1070.980570  Total Light Power Density (W/m^2) = 1070.980570	
-0.199980	-0.000113	-19.520000
-0.184820	-0.000114	-19.592103
-0.169673	-0.000115	-19.814931
-0.154525	-0.000114	-19.593707
-0.139376	-0.000112	-19.276138
-0.124220	-0.000113	-19.452776
-0.109069	-0.000111	-19.178983
-0.093926	-0.000114	-19.572397
-0.078775	-0.000115	-19.822310
-0.063627	-0.000112	-19.386379
-0.048466	-0.000112	-19.308155
-0.033318	-0.000112	-19.331362
-0.018171	-0.000110	-19.049603
-0.003021	-0.000113	-19.484655
0.012081	-0.000112	-19.391034
0.027235	-0.000110	-19.014741
0.042385	-0.000109	-18.829224
0.057603	-0.000111	-19.113966
0.072755	-0.000111	-19.066534
0.087878	-0.000111	-19.170862
0.103028	-0.000109	-18.807500
0.118175	-0.000110	-19.001483
0.133329	-0.000109	-18.808034
0.148486	-0.000108	-18.618483
0.163638	-0.000108	-18.549655
0.178785	-0.000109	-18.732155
0.193939	-0.000106	-18.348586
0.209090	-0.000109	-18.738983
0.224247	-0.000108	-18.607259
0.239398	-0.000107	-18.392793
0.254546	-0.000107	-18.390948
0.269697	-0.000107	-18.512259
0.284851	-0.000106	-18.280224
0.300002	-0.000106	-18.350879
0.315150	-0.000106	-18.231121
0.330305	-0.000105	-18.047828
0.345461	-0.000105	-18.112724
0.360611	-0.000106	-18.216310
0.375761	-0.000106	-18.196172
0.390877	-0.000105	-18.020310
0.406028	-0.000104	-17.859155
0.421182	-0.000105	-18.041552
0.436336	-0.000104	-17.902603
0.451480	-0.000102	-17.625466
0.466634	-0.000102	-17.522983
0.481790	-0.000101	-17.402931
0.496944	-0.000101	-17.416534
0.512094	-0.000101	-17.484793
0.527242	-0.000100	-17.245655
0.542389	-0.000101	-17.337000
0.557576	-0.000100	-17.252948
0.572727	-0.000101	-17.437879
0.587900	-9.848809E-5	-16.980705
0.603054	-9.893659E-5	-17.058033
0.618207	-9.869378E-5	-17.016169
0.633363	-9.688476E-5	-16.704269
0.648514	-9.753905E-5	-16.817078
0.663662	-9.493385E-5	-16.367905
0.678812	-9.580679E-5	-16.518412
0.693960	-9.520778E-5	-16.415134
0.709115	-9.511240E-5	-16.398690
0.724255	-9.536371E-5	-16.442019
0.739413	-9.348614E-5	-16.118300
0.754569	-9.273176E-5	-15.988234
0.769718	-9.281995E-5	-16.003440
0.784867	-9.175987E-5	-15.820667
0.800017	-9.091839E-5	-15.675584
0.815170	-8.864687E-5	-15.283943
0.830288	-8.902447E-5	-15.349047
0.845437	-8.738587E-5	-15.066529
0.860584	-8.639260E-5	-14.895276
0.875738	-8.350206E-5	-14.396907
0.890893	-8.365443E-5	-14.423178
0.906040	-8.129117E-5	-14.015719
0.921194	-7.977957E-5	-13.755098
0.936338	-7.816650E-5	-13.476983
0.951494	-7.721328E-5	-13.312634
0.966641	-7.361779E-5	-12.692722
0.981792	-7.009364E-5	-12.085110
0.996939	-6.688017E-5	-11.531064
1.012093	-6.316559E-5	-10.890619
1.027242	-5.831756E-5	-10.054752
1.042400	-5.384944E-5	-9.284386
1.057574	-4.661446E-5	-8.036976
1.072719	-3.933898E-5	-6.782583
1.087868	-2.930761E-5	-5.053036
1.103015	-1.734563E-5	-2.990626
1.118187	-4.284622E-6	-0.738728
1.133303	1.058058E-5	1.824238
1.148460	2.833910E-5	4.886052
1.163604	4.794432E-5	8.266262
1.178750	7.011966E-5	12.089597
1.193888	9.365314E-5	16.147093
1.209063	0.000120	20.612362
1.224216	0.000147	25.403534
1.239368	0.000177	30.475466
1.254511	0.000208	35.841379
1.269656	0.000240	41.436741
1.284792	0.000275	47.350569
1.299935	0.000310	53.369759
