Wavelength (nm)	EQE (%)	Current (A)	Dark Current (A) -> 	-214.591380000E-12	
400.000000	13.080285	-3.843589E-7
401.000000	14.678090	-5.835959E-7
402.000000	14.812499	-8.954303E-7
403.000000	14.714390	-1.289384E-6
404.000000	14.730297	-1.753204E-6
405.000000	14.863966	-2.254458E-6
406.000000	14.969415	-3.004575E-6
407.000000	15.013600	-3.166874E-6
408.000000	14.933020	-3.430434E-6
409.000000	14.948380	-3.617895E-6
410.000000	15.001109	-3.882290E-6
411.000000	15.090353	-4.972464E-6
412.000000	15.010221	-5.689197E-6
413.000000	15.221342	-7.628826E-6
414.000000	15.352824	-8.695517E-6
415.000000	15.396118	-8.810161E-6
416.000000	15.431671	-8.275510E-6
417.000000	15.580775	-7.347950E-6
418.000000	15.198674	-4.665485E-6
419.000000	15.495915	-3.485889E-6
420.000000	15.742801	-3.654506E-6
421.000000	16.001328	-3.946072E-6
422.000000	16.061708	-3.604173E-6
423.000000	16.271938	-3.857956E-6
424.000000	16.456981	-4.354699E-6
425.000000	16.464306	-4.688773E-6
426.000000	16.650301	-5.042686E-6
427.000000	16.954762	-5.388265E-6
428.000000	17.143461	-6.007005E-6
429.000000	17.327095	-6.774006E-6
430.000000	17.367184	-7.337509E-6
431.000000	17.748060	-7.561290E-6
432.000000	17.898650	-7.595749E-6
433.000000	18.106213	-7.892873E-6
434.000000	18.469773	-8.858169E-6
435.000000	18.598338	-9.112445E-6
436.000000	18.967455	-9.426558E-6
437.000000	19.018579	-1.039823E-5
438.000000	19.365824	-1.075944E-5
439.000000	19.561598	-1.073012E-5
440.000000	20.005840	-1.110708E-5
441.000000	20.530940	-1.245694E-5
442.000000	20.598844	-1.201473E-5
443.000000	20.827787	-1.158031E-5
444.000000	21.021424	-1.172946E-5
445.000000	21.323672	-1.159310E-5
446.000000	21.861248	-1.182930E-5
447.000000	22.203443	-1.362253E-5
448.000000	22.392609	-1.500120E-5
449.000000	22.764685	-1.384155E-5
450.000000	22.886979	-1.332771E-5
451.000000	23.123056	-1.497946E-5
452.000000	23.361554	-1.572505E-5
453.000000	23.253248	-1.445144E-5
454.000000	23.758796	-1.336190E-5
455.000000	23.828713	-1.413604E-5
456.000000	24.232479	-1.680593E-5
457.000000	23.965768	-1.864733E-5
458.000000	24.578914	-1.895763E-5
459.000000	24.798223	-1.794167E-5
460.000000	25.176218	-1.701772E-5
461.000000	25.471381	-1.604622E-5
462.000000	25.672787	-1.570570E-5
463.000000	26.024378	-1.590483E-5
464.000000	26.383690	-1.628013E-5
465.000000	26.990782	-1.674852E-5
466.000000	27.407580	-1.537849E-5
467.000000	27.676087	-1.266618E-5
468.000000	27.951332	-1.347087E-5
469.000000	28.421688	-1.758573E-5
470.000000	28.282904	-1.705042E-5
471.000000	28.428390	-1.318503E-5
472.000000	29.266899	-1.381194E-5
473.000000	29.813065	-1.898898E-5
474.000000	30.313021	-1.855414E-5
475.000000	30.110673	-1.452385E-5
476.000000	30.503806	-1.482960E-5
477.000000	30.991633	-1.722476E-5
478.000000	30.820594	-1.566596E-5
479.000000	31.655208	-1.635730E-5
480.000000	31.704632	-1.948187E-5
481.000000	31.770570	-1.833588E-5
482.000000	31.719464	-1.330217E-5
483.000000	32.495936	-1.534817E-5
484.000000	33.019861	-1.828204E-5
485.000000	32.812297	-1.513477E-5
486.000000	33.132285	-1.511683E-5
487.000000	33.562703	-1.778657E-5
488.000000	34.057942	-1.689459E-5
489.000000	33.392976	-1.509374E-5
490.000000	33.975030	-1.759596E-5
491.000000	34.188303	-1.910091E-5
492.000000	34.478652	-2.130266E-5
493.000000	34.374481	-2.194249E-5
494.000000	34.450565	-1.972225E-5
495.000000	34.611079	-2.043220E-5
496.000000	34.798683	-2.301379E-5
497.000000	35.028310	-2.384364E-5
498.000000	34.786114	-2.197275E-5
499.000000	35.146240	-2.197274E-5
500.000000	35.216234	-2.516080E-5
501.000000	34.665355	-2.917773E-5
502.000000	34.939768	-2.708884E-5
503.000000	35.428290	-2.651659E-5
504.000000	36.185067	-3.199682E-5
505.000000	35.772373	-3.431652E-5
506.000000	35.906047	-3.061547E-5
507.000000	35.625668	-2.533710E-5
508.000000	36.079087	-2.558697E-5
509.000000	36.371265	-2.540990E-5
510.000000	35.870725	-2.187829E-5
511.000000	36.246551	-2.125353E-5
512.000000	36.361792	-2.421544E-5
513.000000	36.205821	-2.852452E-5
514.000000	36.200483	-3.361926E-5
515.000000	36.245042	-3.942588E-5
516.000000	36.684499	-5.095185E-5
517.000000	36.333359	-5.583483E-5
518.000000	36.258617	-4.584817E-5
519.000000	36.227090	-3.894850E-5
520.000000	36.399078	-3.588159E-5
521.000000	36.613303	-2.714354E-5
522.000000	36.423069	-2.282886E-5
523.000000	36.339444	-2.227686E-5
524.000000	36.716028	-3.092740E-5
525.000000	36.799207	-4.132426E-5
526.000000	36.736218	-4.344329E-5
527.000000	36.898659	-4.858078E-5
528.000000	36.602886	-5.266295E-5
529.000000	36.552606	-4.856752E-5
530.000000	36.150093	-3.622486E-5
531.000000	35.998475	-2.658153E-5
532.000000	36.050344	-2.251905E-5
533.000000	36.335274	-2.511665E-5
534.000000	36.629898	-2.702664E-5
535.000000	36.874125	-3.609439E-5
536.000000	36.537515	-4.994146E-5
537.000000	36.188258	-4.452709E-5
538.000000	36.106365	-3.542934E-5
539.000000	36.484478	-3.565640E-5
540.000000	35.988482	-2.774944E-5
541.000000	36.093728	-2.547159E-5
542.000000	36.353564	-2.662703E-5
543.000000	36.245263	-3.201465E-5
544.000000	36.405939	-4.305065E-5
545.000000	35.898188	-4.337936E-5
546.000000	35.867910	-3.978139E-5
547.000000	36.176238	-3.998977E-5
548.000000	35.533016	-2.985690E-5
549.000000	35.573974	-2.408164E-5
550.000000	35.925440	-2.461233E-5
551.000000	35.738041	-2.735666E-5
552.000000	35.718480	-3.711840E-5
553.000000	35.915271	-4.335658E-5
554.000000	35.739151	-4.470519E-5
555.000000	35.754875	-4.502305E-5
556.000000	35.901878	-3.748472E-5
557.000000	35.049205	-2.961863E-5
558.000000	35.693550	-2.949394E-5
559.000000	35.795194	-3.303368E-5
560.000000	35.717461	-4.067113E-5
561.000000	35.658900	-4.479231E-5
562.000000	35.506647	-4.107949E-5
563.000000	35.433659	-4.053497E-5
564.000000	35.665366	-3.340585E-5
565.000000	35.494490	-2.686373E-5
566.000000	35.498959	-2.777536E-5
567.000000	35.791537	-3.046163E-5
568.000000	35.765358	-3.749206E-5
569.000000	35.827681	-4.103621E-5
570.000000	35.601956	-3.881766E-5
571.000000	35.796029	-3.654358E-5
572.000000	35.723077	-3.155013E-5
573.000000	35.795455	-2.654792E-5
574.000000	36.141615	-2.822165E-5
575.000000	36.061899	-3.364712E-5
576.000000	36.091285	-4.353292E-5
577.000000	35.902132	-4.649949E-5
578.000000	36.077491	-4.816983E-5
579.000000	36.197457	-4.374364E-5
580.000000	36.043025	-3.530372E-5
581.000000	36.545291	-3.243632E-5
582.000000	36.536675	-3.119878E-5
583.000000	36.544872	-3.625056E-5
584.000000	36.310070	-4.426242E-5
585.000000	36.631170	-4.560623E-5
586.000000	36.569057	-4.369972E-5
587.000000	36.746125	-4.052181E-5
588.000000	36.420654	-3.322369E-5
589.000000	37.097539	-3.280675E-5
590.000000	37.043006	-3.399856E-5
591.000000	36.973794	-5.086261E-5
592.000000	36.892635	-5.133477E-5
593.000000	36.632450	-5.136788E-5
594.000000	36.825794	-4.958635E-5
595.000000	37.204216	-4.830604E-5
596.000000	37.326263	-4.867141E-5
597.000000	37.719535	-5.044853E-5
598.000000	38.318972	-5.500154E-5
599.000000	37.620065	-5.895695E-5
600.000000	37.643611	-6.237433E-5
601.000000	37.948402	-6.577920E-5
602.000000	37.845741	-6.629644E-5
603.000000	37.846669	-6.543681E-5
604.000000	37.875137	-6.297779E-5
605.000000	37.996064	-6.086419E-5
606.000000	38.091726	-6.166969E-5
607.000000	38.288535	-6.274732E-5
608.000000	38.382992	-6.703573E-5
609.000000	38.826747	-7.230113E-5
610.000000	38.960840	-7.548962E-5
611.000000	39.088896	-7.830815E-5
612.000000	39.039826	-7.849075E-5
613.000000	38.953288	-7.657522E-5
614.000000	38.902477	-7.308862E-5
615.000000	38.916171	-6.960461E-5
616.000000	39.387870	-6.990573E-5
617.000000	39.700557	-7.290959E-5
618.000000	40.094709	-7.916824E-5
619.000000	40.298559	-8.351325E-5
620.000000	40.261499	-8.570334E-5
621.000000	40.527619	-8.861114E-5
622.000000	40.403879	-9.036966E-5
623.000000	40.477316	-9.341699E-5
624.000000	40.448440	-9.627276E-5
625.000000	40.115633	-0.000104
626.000000	40.080824	-9.910087E-5
627.000000	39.508242	-9.839486E-5
628.000000	40.952510	-9.823502E-5
629.000000	41.411656	-9.970723E-5
630.000000	41.235037	-0.000101
631.000000	41.548413	-0.000106
632.000000	41.801589	-0.000112
633.000000	42.087635	-0.000116
634.000000	41.998493	-0.000120
635.000000	42.007789	-0.000120
636.000000	41.955887	-0.000119
637.000000	42.201517	-0.000120
638.000000	42.319656	-0.000121
639.000000	42.599141	-0.000122
640.000000	42.619256	-0.000121
641.000000	42.723816	-0.000119
642.000000	42.580066	-0.000119
643.000000	42.472312	-0.000120
644.000000	43.005241	-0.000128
645.000000	43.274128	-0.000136
646.000000	43.320848	-0.000140
647.000000	43.318083	-0.000139
648.000000	43.451813	-0.000134
649.000000	43.440745	-0.000128
650.000000	43.574913	-0.000125
651.000000	43.559184	-0.000128
652.000000	43.813820	-0.000136
653.000000	43.965525	-0.000142
654.000000	44.149779	-0.000144
655.000000	44.031413	-0.000140
656.000000	44.069368	-0.000133
657.000000	44.071332	-0.000129
658.000000	44.207303	-0.000127
659.000000	44.351424	-0.000133
660.000000	44.262254	-0.000144
661.000000	44.475215	-0.000152
662.000000	44.499078	-0.000153
663.000000	44.563988	-0.000145
664.000000	44.421226	-0.000129
665.000000	44.441920	-0.000121
666.000000	44.437640	-0.000124
667.000000	44.706415	-0.000136
668.000000	44.642147	-0.000148
669.000000	44.802762	-0.000154
670.000000	44.509830	-0.000150
671.000000	44.443878	-0.000139
672.000000	44.579624	-0.000133
673.000000	44.662835	-0.000132
674.000000	44.771004	-0.000133
675.000000	45.335642	-0.000146
676.000000	44.785084	-0.000153
677.000000	44.784960	-0.000154
678.000000	44.748219	-0.000152
679.000000	44.856455	-0.000143
680.000000	45.072300	-0.000136
681.000000	45.081352	-0.000142
682.000000	44.921659	-0.000155
683.000000	45.010804	-0.000164
684.000000	44.961221	-0.000167
685.000000	45.125555	-0.000164
686.000000	45.268642	-0.000152
687.000000	45.449470	-0.000146
688.000000	45.833285	-0.000157
689.000000	45.591089	-0.000166
690.000000	45.588278	-0.000175
691.000000	45.915508	-0.000182
692.000000	45.788085	-0.000176
693.000000	45.851791	-0.000166
694.000000	45.965698	-0.000160
695.000000	46.120534	-0.000164
696.000000	46.044514	-0.000178
697.000000	46.272579	-0.000194
698.000000	46.609271	-0.000205
699.000000	46.728206	-0.000201
700.000000	46.969132	-0.000191
701.000000	47.048609	-0.000185
702.000000	46.989293	-0.000182
703.000000	47.118216	-0.000193
704.000000	47.425277	-0.000215
705.000000	47.622154	-0.000225
706.000000	47.455159	-0.000217
707.000000	47.760653	-0.000207
708.000000	48.227279	-0.000201
709.000000	48.104685	-0.000189
710.000000	48.066750	-0.000192
711.000000	48.435463	-0.000220
712.000000	48.522950	-0.000237
713.000000	48.954470	-0.000230
714.000000	48.681067	-0.000212
715.000000	48.793233	-0.000193
716.000000	48.864307	-0.000189
717.000000	48.850172	-0.000194
718.000000	48.782511	-0.000207
719.000000	49.003322	-0.000221
720.000000	48.886257	-0.000222
721.000000	49.008798	-0.000215
722.000000	49.201375	-0.000202
723.000000	49.239300	-0.000187
724.000000	49.246370	-0.000186
725.000000	49.291157	-0.000195
726.000000	49.094293	-0.000205
727.000000	49.294139	-0.000212
728.000000	49.154277	-0.000207
729.000000	49.471897	-0.000196
730.000000	49.242177	-0.000183
731.000000	49.195483	-0.000178
732.000000	49.181931	-0.000180
733.000000	49.357895	-0.000189
734.000000	49.203695	-0.000198
735.000000	49.171960	-0.000197
736.000000	49.365902	-0.000190
737.000000	49.322283	-0.000183
738.000000	49.193587	-0.000174
739.000000	49.000114	-0.000173
740.000000	49.135980	-0.000177
741.000000	49.125050	-0.000182
742.000000	49.115452	-0.000186
743.000000	48.939784	-0.000181
744.000000	48.943376	-0.000172
745.000000	48.717018	-0.000166
746.000000	48.645215	-0.000163
747.000000	48.702257	-0.000164
748.000000	48.641525	-0.000170
749.000000	48.508625	-0.000172
750.000000	48.512356	-0.000172
751.000000	48.449642	-0.000169
752.000000	48.309889	-0.000161
753.000000	48.021828	-0.000155
754.000000	47.850802	-0.000153
755.000000	47.915873	-0.000155
756.000000	47.853354	-0.000159
757.000000	47.683540	-0.000160
758.000000	47.730004	-0.000159
759.000000	47.606942	-0.000156
760.000000	47.448135	-0.000150
761.000000	47.337593	-0.000146
762.000000	47.184578	-0.000145
763.000000	47.093413	-0.000148
764.000000	47.230953	-0.000152
765.000000	47.321650	-0.000154
766.000000	47.288675	-0.000153
767.000000	47.202732	-0.000149
768.000000	47.076978	-0.000144
769.000000	47.036848	-0.000143
770.000000	46.891020	-0.000145
771.000000	46.847910	-0.000149
772.000000	46.985132	-0.000153
773.000000	47.086482	-0.000153
774.000000	47.144722	-0.000150
775.000000	46.811526	-0.000144
776.000000	46.865379	-0.000141
777.000000	46.747055	-0.000142
778.000000	46.849760	-0.000149
779.000000	46.692713	-0.000154
780.000000	46.838960	-0.000157
781.000000	46.769939	-0.000154
782.000000	46.643028	-0.000148
783.000000	46.933785	-0.000145
784.000000	46.767217	-0.000145
785.000000	46.645732	-0.000151
786.000000	46.679342	-0.000158
787.000000	46.709763	-0.000161
788.000000	46.885364	-0.000160
789.000000	46.928943	-0.000153
790.000000	47.030038	-0.000147
791.000000	47.007865	-0.000146
792.000000	46.912626	-0.000150
793.000000	47.043111	-0.000159
794.000000	47.154412	-0.000167
795.000000	47.273156	-0.000167
796.000000	47.173927	-0.000158
797.000000	47.370160	-0.000150
798.000000	47.247260	-0.000149
799.000000	47.252928	-0.000152
800.000000	47.333941	-0.000160
801.000000	47.422368	-0.000170
802.000000	47.467416	-0.000172
803.000000	47.548576	-0.000164
804.000000	47.687730	-0.000154
805.000000	47.626864	-0.000146
806.000000	47.617929	-0.000146
807.000000	47.646740	-0.000154
808.000000	47.792061	-0.000166
809.000000	47.801895	-0.000172
810.000000	47.837753	-0.000169
811.000000	47.892793	-0.000161
812.000000	47.853510	-0.000151
813.000000	47.863352	-0.000148
814.000000	47.742976	-0.000156
815.000000	47.813701	-0.000167
816.000000	48.041804	-0.000178
817.000000	48.054475	-0.000178
818.000000	48.086944	-0.000166
819.000000	47.997928	-0.000154
820.000000	48.013728	-0.000149
821.000000	47.910888	-0.000154
822.000000	47.909396	-0.000167
823.000000	48.114817	-0.000181
824.000000	48.051192	-0.000183
825.000000	47.973506	-0.000174
826.000000	48.042443	-0.000164
827.000000	48.054513	-0.000159
828.000000	47.993532	-0.000163
829.000000	47.923795	-0.000173
830.000000	47.933632	-0.000186
831.000000	48.003990	-0.000195
832.000000	47.899764	-0.000192
833.000000	47.983379	-0.000182
834.000000	47.820582	-0.000170
835.000000	47.640047	-0.000167
836.000000	47.511183	-0.000174
837.000000	47.477571	-0.000184
838.000000	47.344675	-0.000190
839.000000	47.425460	-0.000190
840.000000	47.433187	-0.000182
841.000000	47.182824	-0.000169
842.000000	47.077270	-0.000163
843.000000	47.008590	-0.000168
844.000000	46.980644	-0.000175
845.000000	46.773948	-0.000181
846.000000	46.825143	-0.000184
847.000000	46.620181	-0.000177
848.000000	46.634783	-0.000163
849.000000	46.275625	-0.000154
850.000000	46.223973	-0.000154
851.000000	46.062156	-0.000160
852.000000	45.793264	-0.000165
853.000000	45.618377	-0.000166
854.000000	45.388812	-0.000161
855.000000	45.141684	-0.000151
856.000000	44.947157	-0.000142
857.000000	44.723360	-0.000138
858.000000	44.366827	-0.000141
859.000000	44.223903	-0.000145
860.000000	43.891111	-0.000143
861.000000	43.593595	-0.000136
862.000000	43.396136	-0.000129
863.000000	43.066041	-0.000121
864.000000	42.642520	-0.000118
865.000000	42.333032	-0.000117
866.000000	41.787608	-0.000118
867.000000	41.499295	-0.000119
868.000000	41.099403	-0.000114
869.000000	40.504965	-0.000104
870.000000	40.020239	-9.823578E-5
871.000000	39.535383	-9.646095E-5
872.000000	39.008621	-9.574817E-5
873.000000	38.471159	-9.527498E-5
874.000000	37.920356	-9.361504E-5
875.000000	37.169839	-8.978665E-5
876.000000	36.519973	-8.469309E-5
877.000000	35.880375	-7.984706E-5
878.000000	35.210311	-7.683837E-5
879.000000	34.546454	-7.470223E-5
880.000000	33.806242	-7.297040E-5
881.000000	33.068938	-7.146184E-5
882.000000	32.333718	-6.929133E-5
883.000000	31.554021	-6.637481E-5
884.000000	30.712447	-6.276068E-5
885.000000	29.890097	-5.912430E-5
886.000000	29.159095	-5.718137E-5
887.000000	28.258233	-5.619383E-5
888.000000	27.420265	-5.478646E-5
889.000000	26.678999	-5.304413E-5
890.000000	25.873371	-5.067600E-5
891.000000	25.021707	-4.773374E-5
892.000000	24.204801	-4.510890E-5
893.000000	23.415059	-4.383616E-5
894.000000	22.621907	-4.290844E-5
895.000000	21.845521	-4.131796E-5
896.000000	20.979528	-3.993869E-5
897.000000	20.257524	-3.874993E-5
898.000000	19.517060	-3.625611E-5
899.000000	18.770308	-3.401937E-5
900.000000	18.048656	-3.288056E-5
901.000000	17.302872	-3.176901E-5
902.000000	16.574716	-3.046262E-5
903.000000	15.887159	-2.910796E-5
904.000000	15.223841	-2.805099E-5
905.000000	14.596532	-2.695855E-5
906.000000	13.989941	-2.553457E-5
907.000000	13.403911	-2.447585E-5
908.000000	12.796490	-2.342177E-5
909.000000	12.236733	-2.207421E-5
910.000000	11.646823	-2.094579E-5
911.000000	11.124273	-2.008148E-5
912.000000	10.611935	-1.932511E-5
913.000000	10.143365	-1.855734E-5
914.000000	9.679860	-1.763147E-5
915.000000	9.232554	-1.667791E-5
916.000000	8.782111	-1.564072E-5
917.000000	8.333590	-1.470453E-5
918.000000	7.955444	-1.410649E-5
919.000000	7.567737	-1.342197E-5
920.000000	7.190162	-1.280632E-5
921.000000	6.875645	-1.234536E-5
922.000000	6.541688	-1.157270E-5
923.000000	6.190646	-1.076260E-5
924.000000	5.908303	-1.021789E-5
925.000000	5.602387	-9.598229E-6
926.000000	5.312848	-9.118031E-6
927.000000	5.041817	-8.702850E-6
928.000000	4.805231	-8.298352E-6
929.000000	4.565431	-7.858998E-6
930.000000	4.332132	-7.271906E-6
931.000000	4.113656	-6.755772E-6
932.000000	3.890546	-6.328662E-6
933.000000	3.683287	-5.915786E-6
934.000000	3.492334	-5.670805E-6
935.000000	3.323876	-5.468317E-6
936.000000	3.141430	-5.120253E-6
937.000000	2.987689	-4.781024E-6
938.000000	2.836964	-4.420530E-6
939.000000	2.683264	-4.154198E-6
940.000000	2.541775	-3.963178E-6
941.000000	2.402173	-3.731916E-6
942.000000	2.274975	-3.545821E-6
943.000000	2.158605	-3.358077E-6
944.000000	2.046638	-3.117501E-6
945.000000	1.938726	-2.899307E-6
946.000000	1.828014	-2.678631E-6
947.000000	1.723913	-2.482189E-6
948.000000	1.633177	-2.364656E-6
949.000000	1.545150	-2.254237E-6
950.000000	1.460057	-2.133592E-6
951.000000	1.383788	-2.008030E-6
952.000000	1.314573	-1.868121E-6
953.000000	1.240776	-1.738587E-6
954.000000	1.170602	-1.621954E-6
955.000000	1.104756	-1.524390E-6
956.000000	1.046314	-1.454498E-6
957.000000	0.989102	-1.368846E-6
958.000000	0.933016	-1.285506E-6
959.000000	0.883513	-1.200488E-6
960.000000	0.837830	-1.097030E-6
961.000000	0.786917	-1.013656E-6
962.000000	0.742265	-9.519723E-7
963.000000	0.702413	-9.066092E-7
964.000000	0.663499	-8.664067E-7
965.000000	0.627593	-8.111450E-7
966.000000	0.593131	-7.553908E-7
967.000000	0.562868	-7.095138E-7
968.000000	0.532385	-6.566974E-7
969.000000	0.500818	-6.132474E-7
970.000000	0.473147	-5.825779E-7
971.000000	0.446102	-5.509002E-7
972.000000	0.422459	-5.180831E-7
973.000000	0.399597	-4.803935E-7
974.000000	0.378910	-4.443276E-7
975.000000	0.356966	-4.104705E-7
976.000000	0.336998	-3.808850E-7
977.000000	0.318545	-3.624393E-7
978.000000	0.301883	-3.470145E-7
979.000000	0.285056	-3.261248E-7
980.000000	0.271127	-3.088587E-7
981.000000	0.256410	-2.887334E-7
982.000000	0.243008	-2.687917E-7
983.000000	0.230261	-2.525956E-7
984.000000	0.218471	-2.405486E-7
985.000000	0.206146	-2.287654E-7
986.000000	0.195198	-2.149901E-7
987.000000	0.184909	-1.996402E-7
988.000000	0.175331	-1.861063E-7
989.000000	0.166630	-1.734970E-7
990.000000	0.158150	-1.621279E-7
991.000000	0.149624	-1.541265E-7
992.000000	0.141767	-1.475472E-7
993.000000	0.135080	-1.418853E-7
994.000000	0.128687	-1.354253E-7
995.000000	0.122609	-1.278903E-7
996.000000	0.116742	-1.208263E-7
997.000000	0.111375	-1.140536E-7
998.000000	0.105610	-1.074158E-7
999.000000	0.100081	-1.023786E-7
1000.000000	0.095358	-9.791253E-8
1001.000000	0.090709	-9.278479E-8
1002.000000	0.086629	-8.771648E-8
1003.000000	0.082171	-8.205927E-8
1004.000000	0.078137	-7.741517E-8
1005.000000	0.074559	-7.434778E-8
1006.000000	0.070983	-7.161977E-8
1007.000000	0.067875	-6.963398E-8
1008.000000	0.064897	-6.714910E-8
