Wavelength (nm)	EQE (%)	Current (A)	Dark Current (A) -> 	-26.218444000E-12	
400.000000	15.659391	-4.601449E-7
401.000000	17.398465	-6.917571E-7
402.000000	17.388118	-1.051129E-6
403.000000	17.232129	-1.510007E-6
404.000000	17.141021	-2.040129E-6
405.000000	17.228327	-2.613067E-6
406.000000	17.179033	-3.448077E-6
407.000000	17.062159	-3.598984E-6
408.000000	16.918630	-3.886571E-6
409.000000	16.790063	-4.063630E-6
410.000000	16.733480	-4.330628E-6
411.000000	16.723318	-5.510547E-6
412.000000	16.593060	-6.289127E-6
413.000000	16.747946	-8.393949E-6
414.000000	16.793154	-9.511290E-6
415.000000	16.685680	-9.548090E-6
416.000000	16.720014	-8.966407E-6
417.000000	16.712483	-7.881668E-6
418.000000	16.243221	-4.986126E-6
419.000000	16.462200	-3.703260E-6
420.000000	16.811940	-3.902694E-6
421.000000	16.896891	-4.166926E-6
422.000000	16.693259	-3.745890E-6
423.000000	16.886977	-4.003777E-6
424.000000	17.061136	-4.514565E-6
425.000000	16.884712	-4.808498E-6
426.000000	16.922553	-5.125140E-6
427.000000	17.253117	-5.483083E-6
428.000000	17.273996	-6.052744E-6
429.000000	17.430779	-6.814541E-6
430.000000	17.233490	-7.281024E-6
431.000000	17.683210	-7.533662E-6
432.000000	17.748842	-7.532174E-6
433.000000	17.821700	-7.768848E-6
434.000000	18.038283	-8.651225E-6
435.000000	18.069848	-8.853506E-6
436.000000	18.156944	-9.023745E-6
437.000000	18.402364	-1.006132E-5
438.000000	18.584617	-1.032541E-5
439.000000	18.749664	-1.028475E-5
440.000000	19.014507	-1.055670E-5
441.000000	19.292815	-1.170572E-5
442.000000	19.413188	-1.132317E-5
443.000000	19.611858	-1.090425E-5
444.000000	19.741352	-1.101521E-5
445.000000	19.930757	-1.083581E-5
446.000000	20.244547	-1.095449E-5
447.000000	20.492139	-1.257259E-5
448.000000	20.581565	-1.378795E-5
449.000000	21.025537	-1.278410E-5
450.000000	21.029158	-1.224585E-5
451.000000	21.015278	-1.361401E-5
452.000000	21.212565	-1.427853E-5
453.000000	21.550299	-1.339309E-5
454.000000	21.483824	-1.208246E-5
455.000000	21.644674	-1.284039E-5
456.000000	21.906478	-1.519278E-5
457.000000	21.396283	-1.664806E-5
458.000000	22.173043	-1.710199E-5
459.000000	22.570447	-1.632986E-5
460.000000	22.496041	-1.520607E-5
461.000000	22.887435	-1.441841E-5
462.000000	23.064659	-1.411014E-5
463.000000	23.363629	-1.427871E-5
464.000000	23.899592	-1.474731E-5
465.000000	24.485220	-1.519375E-5
466.000000	24.803319	-1.391723E-5
467.000000	25.083627	-1.147972E-5
468.000000	25.176092	-1.213337E-5
469.000000	25.455854	-1.575064E-5
470.000000	25.630165	-1.545121E-5
471.000000	25.895434	-1.201025E-5
472.000000	26.744981	-1.262177E-5
473.000000	26.909628	-1.713968E-5
474.000000	27.163539	-1.662639E-5
475.000000	27.296984	-1.316667E-5
476.000000	28.395819	-1.380479E-5
477.000000	28.504837	-1.584263E-5
478.000000	28.267923	-1.436845E-5
479.000000	28.862801	-1.491437E-5
480.000000	29.302618	-1.800588E-5
481.000000	29.103738	-1.679676E-5
482.000000	29.423254	-1.233921E-5
483.000000	29.802962	-1.407625E-5
484.000000	30.300252	-1.677628E-5
485.000000	30.603163	-1.411580E-5
486.000000	31.189629	-1.423048E-5
487.000000	31.679998	-1.678883E-5
488.000000	31.897433	-1.582286E-5
489.000000	31.515866	-1.424528E-5
490.000000	32.151967	-1.665178E-5
491.000000	32.487149	-1.815048E-5
492.000000	32.640053	-2.016668E-5
493.000000	32.930134	-2.102051E-5
494.000000	33.213875	-1.901427E-5
495.000000	33.374666	-1.970230E-5
496.000000	33.884873	-2.240945E-5
497.000000	34.119946	-2.322532E-5
498.000000	34.233548	-2.162372E-5
499.000000	34.580691	-2.161917E-5
500.000000	34.822206	-2.487928E-5
501.000000	34.147449	-2.874181E-5
502.000000	35.094508	-2.720881E-5
503.000000	35.478620	-2.655426E-5
504.000000	35.975750	-3.181173E-5
505.000000	36.056454	-3.458904E-5
506.000000	35.915899	-3.062387E-5
507.000000	36.228238	-2.576565E-5
508.000000	36.661469	-2.599999E-5
509.000000	36.999555	-2.584884E-5
510.000000	37.158188	-2.266354E-5
511.000000	37.803120	-2.216624E-5
512.000000	38.439129	-2.559886E-5
513.000000	38.214380	-3.010695E-5
514.000000	38.330630	-3.559752E-5
515.000000	39.118030	-4.255100E-5
516.000000	39.368461	-5.467966E-5
517.000000	38.837267	-5.968268E-5
518.000000	39.126776	-4.947489E-5
519.000000	39.587801	-4.256167E-5
520.000000	40.028700	-3.945961E-5
521.000000	40.119413	-2.974282E-5
522.000000	40.436556	-2.534439E-5
523.000000	41.200465	-2.525677E-5
524.000000	41.686488	-3.511422E-5
525.000000	41.721341	-4.685165E-5
526.000000	42.184639	-4.988645E-5
527.000000	42.260203	-5.563979E-5
528.000000	42.227758	-6.075582E-5
529.000000	42.394120	-5.632915E-5
530.000000	42.481847	-4.256971E-5
531.000000	42.486264	-3.137216E-5
532.000000	43.339064	-2.707199E-5
533.000000	43.781049	-3.026352E-5
534.000000	44.405049	-3.276338E-5
535.000000	45.275561	-4.431817E-5
536.000000	44.815676	-6.125650E-5
537.000000	44.641137	-5.492776E-5
538.000000	44.483687	-4.364958E-5
539.000000	45.827699	-4.478756E-5
540.000000	45.541548	-3.511547E-5
541.000000	45.925517	-3.240995E-5
542.000000	46.390561	-3.397859E-5
543.000000	46.972631	-4.148990E-5
544.000000	46.985108	-5.556070E-5
545.000000	46.716422	-5.645211E-5
546.000000	46.995220	-5.212278E-5
547.000000	47.382967	-5.237786E-5
548.000000	47.416902	-3.984243E-5
549.000000	47.823085	-3.237362E-5
550.000000	48.177249	-3.300598E-5
551.000000	48.439893	-3.707964E-5
552.000000	48.776851	-5.068857E-5
553.000000	48.997770	-5.914965E-5
554.000000	49.168061	-6.150307E-5
555.000000	49.286591	-6.206238E-5
556.000000	49.263472	-5.143540E-5
557.000000	49.277427	-4.164231E-5
558.000000	49.696804	-4.106497E-5
559.000000	50.221499	-4.634703E-5
560.000000	50.953428	-5.802018E-5
561.000000	50.557701	-6.350718E-5
562.000000	50.953345	-5.895058E-5
563.000000	51.127769	-5.848853E-5
564.000000	51.277750	-4.802914E-5
565.000000	51.383283	-3.888904E-5
566.000000	51.275655	-4.011948E-5
567.000000	52.069741	-4.431576E-5
568.000000	52.108522	-5.462425E-5
569.000000	52.013676	-5.957528E-5
570.000000	51.658287	-5.632426E-5
571.000000	51.942120	-5.302686E-5
572.000000	52.201798	-4.610391E-5
573.000000	52.697761	-3.908362E-5
574.000000	53.020210	-4.140152E-5
575.000000	53.609396	-5.001960E-5
576.000000	53.411485	-6.442436E-5
577.000000	53.327187	-6.906796E-5
578.000000	53.202684	-7.103499E-5
579.000000	53.292886	-6.440300E-5
580.000000	52.974652	-5.188805E-5
581.000000	53.727098	-4.768629E-5
582.000000	54.348368	-4.640824E-5
583.000000	54.394483	-5.395642E-5
584.000000	53.888368	-6.569058E-5
585.000000	54.075137	-6.732417E-5
586.000000	54.144276	-6.470196E-5
587.000000	53.542834	-5.904439E-5
588.000000	53.557124	-4.885594E-5
589.000000	54.288055	-4.800897E-5
590.000000	54.067876	-4.962421E-5
591.000000	54.131844	-7.446590E-5
592.000000	54.098939	-7.527672E-5
593.000000	53.881548	-7.555544E-5
594.000000	54.007134	-7.272122E-5
595.000000	54.360500	-7.058180E-5
596.000000	54.720435	-7.135246E-5
597.000000	54.672272	-7.312221E-5
598.000000	55.023248	-7.897820E-5
599.000000	54.652377	-8.564944E-5
600.000000	54.417260	-9.016776E-5
601.000000	54.867705	-9.510687E-5
602.000000	54.699400	-9.581991E-5
603.000000	54.468950	-9.417670E-5
604.000000	54.555673	-9.071375E-5
605.000000	54.151863	-8.674344E-5
606.000000	54.195941	-8.774207E-5
607.000000	54.329414	-8.903514E-5
608.000000	54.785724	-9.568303E-5
609.000000	54.927336	-0.000102
610.000000	55.005767	-0.000107
611.000000	55.003784	-0.000110
612.000000	54.963910	-0.000111
613.000000	54.550725	-0.000107
614.000000	54.261384	-0.000102
615.000000	54.029740	-9.663641E-5
616.000000	54.673990	-9.703559E-5
617.000000	54.891188	-0.000101
618.000000	54.876579	-0.000108
619.000000	55.154570	-0.000114
620.000000	54.897538	-0.000117
621.000000	54.765367	-0.000120
622.000000	54.742388	-0.000122
623.000000	54.641545	-0.000126
624.000000	54.908937	-0.000131
625.000000	54.560729	-0.000142
626.000000	55.480837	-0.000137
627.000000	54.254436	-0.000135
628.000000	55.841895	-0.000134
629.000000	56.059883	-0.000135
630.000000	55.744524	-0.000137
631.000000	55.956395	-0.000143
632.000000	56.179786	-0.000151
633.000000	56.048353	-0.000155
634.000000	55.721178	-0.000159
635.000000	55.671147	-0.000160
636.000000	55.482643	-0.000158
637.000000	55.593790	-0.000158
638.000000	55.462766	-0.000159
639.000000	55.820212	-0.000160
640.000000	55.591533	-0.000158
641.000000	55.475840	-0.000155
642.000000	55.498931	-0.000155
643.000000	55.378593	-0.000157
644.000000	55.729750	-0.000165
645.000000	55.831111	-0.000175
646.000000	55.840422	-0.000180
647.000000	55.814205	-0.000180
648.000000	55.790689	-0.000172
649.000000	55.798788	-0.000165
650.000000	55.798599	-0.000161
651.000000	55.672754	-0.000163
652.000000	55.715302	-0.000173
653.000000	55.873889	-0.000180
654.000000	55.904787	-0.000183
655.000000	55.764114	-0.000178
656.000000	55.610024	-0.000167
657.000000	55.683632	-0.000163
658.000000	55.744644	-0.000160
659.000000	55.850197	-0.000167
660.000000	55.753663	-0.000181
661.000000	56.013283	-0.000191
662.000000	56.069232	-0.000193
663.000000	56.003838	-0.000182
664.000000	56.135596	-0.000163
665.000000	55.970864	-0.000152
666.000000	55.986357	-0.000157
667.000000	56.087615	-0.000171
668.000000	55.792923	-0.000185
669.000000	55.910846	-0.000193
670.000000	55.898891	-0.000188
671.000000	55.823126	-0.000174
672.000000	55.878303	-0.000166
673.000000	55.523518	-0.000164
674.000000	55.689484	-0.000166
675.000000	55.778295	-0.000180
676.000000	55.748935	-0.000191
677.000000	55.761340	-0.000191
678.000000	55.670321	-0.000189
679.000000	55.546420	-0.000177
680.000000	55.604822	-0.000168
681.000000	55.552506	-0.000176
682.000000	55.645919	-0.000192
683.000000	55.443305	-0.000202
684.000000	55.473933	-0.000206
685.000000	55.263281	-0.000201
686.000000	55.099794	-0.000185
687.000000	55.352857	-0.000177
688.000000	55.566095	-0.000191
689.000000	55.663806	-0.000203
690.000000	55.601918	-0.000213
691.000000	55.571515	-0.000220
692.000000	55.272527	-0.000212
693.000000	55.125695	-0.000200
694.000000	55.048958	-0.000192
695.000000	54.949084	-0.000196
696.000000	55.148913	-0.000213
697.000000	55.322072	-0.000232
698.000000	55.407229	-0.000244
699.000000	54.950685	-0.000237
700.000000	55.061228	-0.000224
701.000000	55.081927	-0.000217
702.000000	54.718784	-0.000212
703.000000	54.693785	-0.000224
704.000000	54.952541	-0.000249
705.000000	54.989822	-0.000260
706.000000	54.750503	-0.000250
707.000000	55.005026	-0.000239
708.000000	55.139445	-0.000230
709.000000	54.746743	-0.000215
710.000000	54.620982	-0.000218
711.000000	54.970482	-0.000249
712.000000	55.063063	-0.000269
713.000000	55.110735	-0.000259
714.000000	54.604838	-0.000238
715.000000	54.762900	-0.000217
716.000000	54.712805	-0.000211
717.000000	54.674413	-0.000217
718.000000	54.542522	-0.000232
719.000000	54.539388	-0.000246
720.000000	54.638795	-0.000248
721.000000	54.591012	-0.000240
722.000000	54.645140	-0.000225
723.000000	54.357760	-0.000207
724.000000	54.430140	-0.000205
725.000000	54.245936	-0.000215
726.000000	54.175637	-0.000227
727.000000	54.026486	-0.000232
728.000000	54.129087	-0.000228
729.000000	54.078721	-0.000214
730.000000	54.090997	-0.000201
731.000000	54.030729	-0.000195
732.000000	53.637601	-0.000197
733.000000	53.706729	-0.000206
734.000000	53.663703	-0.000215
735.000000	53.572552	-0.000214
736.000000	54.024082	-0.000208
737.000000	53.897864	-0.000200
738.000000	53.723903	-0.000191
739.000000	53.638752	-0.000189
740.000000	53.636921	-0.000193
741.000000	53.797653	-0.000199
742.000000	53.707192	-0.000203
743.000000	53.723379	-0.000199
744.000000	53.974615	-0.000190
745.000000	53.589810	-0.000182
746.000000	53.707257	-0.000180
747.000000	53.853718	-0.000181
748.000000	53.921883	-0.000188
749.000000	53.916912	-0.000191
750.000000	53.802480	-0.000191
751.000000	53.914653	-0.000188
752.000000	53.887472	-0.000179
753.000000	53.771303	-0.000174
754.000000	53.825272	-0.000172
755.000000	53.812855	-0.000174
756.000000	53.720213	-0.000179
757.000000	53.821418	-0.000181
758.000000	53.934416	-0.000179
759.000000	53.780003	-0.000176
760.000000	53.805872	-0.000170
761.000000	53.644660	-0.000165
762.000000	53.738692	-0.000165
763.000000	53.597035	-0.000168
764.000000	53.732511	-0.000173
765.000000	53.947658	-0.000176
766.000000	54.036172	-0.000175
767.000000	54.049374	-0.000171
768.000000	53.847794	-0.000165
769.000000	53.758884	-0.000163
770.000000	53.777928	-0.000166
771.000000	53.907407	-0.000171
772.000000	53.902613	-0.000175
773.000000	53.849240	-0.000175
774.000000	53.835766	-0.000171
775.000000	53.612841	-0.000165
776.000000	53.514128	-0.000161
777.000000	53.584139	-0.000163
778.000000	53.533428	-0.000170
779.000000	53.658099	-0.000177
780.000000	53.517419	-0.000180
781.000000	53.699343	-0.000177
782.000000	53.563120	-0.000170
783.000000	53.574357	-0.000165
784.000000	53.494845	-0.000166
785.000000	53.211986	-0.000173
786.000000	53.159134	-0.000180
787.000000	52.984992	-0.000183
788.000000	53.337860	-0.000182
789.000000	53.225265	-0.000173
790.000000	53.131843	-0.000166
791.000000	52.964180	-0.000164
792.000000	52.679272	-0.000169
793.000000	52.599925	-0.000178
794.000000	52.543889	-0.000186
795.000000	52.629225	-0.000186
796.000000	52.462265	-0.000176
797.000000	52.585656	-0.000167
798.000000	52.204282	-0.000164
799.000000	51.840275	-0.000166
800.000000	51.826532	-0.000176
801.000000	51.727425	-0.000186
802.000000	51.724872	-0.000187
803.000000	51.648883	-0.000179
804.000000	51.598752	-0.000166
805.000000	51.218725	-0.000157
806.000000	50.987203	-0.000156
807.000000	50.944694	-0.000165
808.000000	50.893657	-0.000177
809.000000	50.706499	-0.000183
810.000000	50.643396	-0.000179
811.000000	50.462567	-0.000169
812.000000	50.191904	-0.000159
813.000000	50.045269	-0.000155
814.000000	49.699578	-0.000162
815.000000	49.616523	-0.000174
816.000000	49.616595	-0.000184
817.000000	49.498177	-0.000183
818.000000	49.307353	-0.000170
819.000000	49.079208	-0.000157
820.000000	48.916370	-0.000152
821.000000	48.614517	-0.000156
822.000000	48.508294	-0.000169
823.000000	48.539629	-0.000182
824.000000	48.333066	-0.000184
825.000000	48.117062	-0.000175
826.000000	48.054764	-0.000164
827.000000	47.951892	-0.000159
828.000000	47.655807	-0.000162
829.000000	47.424658	-0.000171
830.000000	47.368524	-0.000184
831.000000	47.324336	-0.000192
832.000000	47.283401	-0.000190
833.000000	47.208032	-0.000179
834.000000	46.907498	-0.000167
835.000000	46.631896	-0.000164
836.000000	46.246709	-0.000169
837.000000	46.191116	-0.000179
838.000000	46.032516	-0.000185
839.000000	46.010761	-0.000185
840.000000	45.896615	-0.000176
841.000000	45.605208	-0.000163
842.000000	45.475011	-0.000158
843.000000	45.336152	-0.000162
844.000000	45.097777	-0.000168
845.000000	44.928725	-0.000174
846.000000	44.960810	-0.000177
847.000000	44.607335	-0.000169
848.000000	44.522938	-0.000156
849.000000	44.107539	-0.000147
850.000000	43.915305	-0.000147
851.000000	43.665239	-0.000151
852.000000	43.409289	-0.000156
853.000000	43.079748	-0.000157
854.000000	42.836817	-0.000152
855.000000	42.523435	-0.000142
856.000000	42.298597	-0.000134
857.000000	42.051184	-0.000130
858.000000	41.645326	-0.000133
859.000000	41.333440	-0.000136
860.000000	40.915201	-0.000133
861.000000	40.611286	-0.000127
862.000000	40.190461	-0.000119
863.000000	39.842744	-0.000112
864.000000	39.364849	-0.000109
865.000000	38.930327	-0.000108
866.000000	38.481958	-0.000109
867.000000	38.072164	-0.000109
868.000000	37.643158	-0.000104
869.000000	36.999989	-9.521625E-5
870.000000	36.545226	-8.970583E-5
871.000000	36.064541	-8.799257E-5
872.000000	35.519216	-8.718329E-5
873.000000	34.968274	-8.659998E-5
874.000000	34.413218	-8.495687E-5
875.000000	33.788089	-8.161777E-5
876.000000	33.164695	-7.691190E-5
877.000000	32.512249	-7.235174E-5
878.000000	31.902140	-6.961905E-5
879.000000	31.275516	-6.762925E-5
880.000000	30.563974	-6.597200E-5
881.000000	29.909348	-6.463398E-5
882.000000	29.324025	-6.284154E-5
883.000000	28.609303	-6.018051E-5
884.000000	27.853656	-5.691876E-5
885.000000	27.179022	-5.376164E-5
886.000000	26.544380	-5.205388E-5
887.000000	25.780303	-5.126626E-5
888.000000	25.119886	-5.019024E-5
889.000000	24.499242	-4.871026E-5
890.000000	23.859556	-4.673171E-5
891.000000	23.139471	-4.414301E-5
892.000000	22.466225	-4.186883E-5
893.000000	21.838026	-4.088374E-5
894.000000	21.190137	-4.019271E-5
895.000000	20.518815	-3.880867E-5
896.000000	19.848897	-3.778631E-5
897.000000	19.245597	-3.681425E-5
898.000000	18.661948	-3.466760E-5
899.000000	18.034969	-3.268664E-5
900.000000	17.482049	-3.184833E-5
901.000000	16.850096	-3.093769E-5
902.000000	16.225980	-2.982168E-5
903.000000	15.669187	-2.870860E-5
904.000000	15.100442	-2.782362E-5
905.000000	14.573673	-2.691633E-5
906.000000	14.072907	-2.568600E-5
907.000000	13.583334	-2.480348E-5
908.000000	13.043167	-2.387327E-5
909.000000	12.569102	-2.267378E-5
910.000000	12.068356	-2.170388E-5
911.000000	11.610049	-2.095840E-5
912.000000	11.163000	-2.032864E-5
913.000000	10.750868	-1.966877E-5
914.000000	10.342752	-1.883890E-5
915.000000	9.937079	-1.795058E-5
916.000000	9.521083	-1.695681E-5
917.000000	9.130404	-1.611050E-5
918.000000	8.758258	-1.553003E-5
919.000000	8.406465	-1.490952E-5
920.000000	8.065076	-1.436462E-5
921.000000	7.756571	-1.392708E-5
922.000000	7.422219	-1.313042E-5
923.000000	7.123856	-1.238501E-5
924.000000	6.817913	-1.179098E-5
925.000000	6.518926	-1.116848E-5
926.000000	6.242639	-1.071376E-5
927.000000	5.983251	-1.032789E-5
928.000000	5.734772	-9.903615E-6
929.000000	5.495411	-9.459878E-6
930.000000	5.256913	-8.824240E-6
931.000000	5.030305	-8.261166E-6
932.000000	4.797376	-7.803781E-6
933.000000	4.573262	-7.345190E-6
934.000000	4.366279	-7.089905E-6
935.000000	4.177052	-6.871930E-6
936.000000	3.995736	-6.512695E-6
937.000000	3.827447	-6.124840E-6
938.000000	3.663432	-5.708324E-6
939.000000	3.497808	-5.415266E-6
940.000000	3.335057	-5.200077E-6
941.000000	3.174840	-4.932300E-6
942.000000	3.029970	-4.722571E-6
943.000000	2.893289	-4.501003E-6
944.000000	2.761571	-4.206510E-6
945.000000	2.638917	-3.946423E-6
946.000000	2.508603	-3.675914E-6
947.000000	2.380912	-3.428174E-6
948.000000	2.272344	-3.290099E-6
949.000000	2.164171	-3.157334E-6
950.000000	2.063250	-3.015043E-6
951.000000	1.965293	-2.851858E-6
952.000000	1.878371	-2.669326E-6
953.000000	1.792079	-2.511078E-6
954.000000	1.697721	-2.352316E-6
955.000000	1.616073	-2.229927E-6
956.000000	1.539213	-2.139684E-6
957.000000	1.461692	-2.022877E-6
958.000000	1.392273	-1.918270E-6
959.000000	1.326283	-1.802110E-6
960.000000	1.262046	-1.652486E-6
961.000000	1.195955	-1.540552E-6
962.000000	1.140858	-1.463178E-6
963.000000	1.081654	-1.396097E-6
964.000000	1.030237	-1.345299E-6
965.000000	0.980221	-1.266906E-6
966.000000	0.933711	-1.189142E-6
967.000000	0.891137	-1.123308E-6
968.000000	0.847327	-1.045179E-6
969.000000	0.803046	-9.833238E-7
970.000000	0.762742	-9.391500E-7
971.000000	0.724391	-8.945650E-7
972.000000	0.689024	-8.449866E-7
973.000000	0.656641	-7.894092E-7
974.000000	0.625779	-7.338178E-7
975.000000	0.594042	-6.830807E-7
976.000000	0.564099	-6.375615E-7
977.000000	0.536693	-6.106465E-7
978.000000	0.511778	-5.882894E-7
979.000000	0.486596	-5.567002E-7
980.000000	0.464155	-5.287499E-7
981.000000	0.442288	-4.980444E-7
982.000000	0.421493	-4.662155E-7
983.000000	0.401766	-4.407360E-7
984.000000	0.382532	-4.211886E-7
985.000000	0.362887	-4.027054E-7
986.000000	0.346388	-3.815099E-7
987.000000	0.330068	-3.563640E-7
988.000000	0.315116	-3.344823E-7
989.000000	0.301236	-3.136510E-7
990.000000	0.287458	-2.946894E-7
991.000000	0.273630	-2.818643E-7
992.000000	0.260743	-2.713745E-7
993.000000	0.249294	-2.618537E-7
994.000000	0.239446	-2.519829E-7
995.000000	0.229410	-2.392906E-7
996.000000	0.219200	-2.268693E-7
997.000000	0.210180	-2.152347E-7
998.000000	0.200746	-2.041784E-7
999.000000	0.191682	-1.960829E-7
1000.000000	0.183385	-1.882982E-7
1001.000000	0.175783	-1.798056E-7
1002.000000	0.168472	-1.705872E-7
1003.000000	0.160955	-1.607364E-7
1004.000000	0.154630	-1.532024E-7
1005.000000	0.148042	-1.476230E-7
1006.000000	0.141826	-1.430979E-7
1007.000000	0.136306	-1.398387E-7
1008.000000	0.131146	-1.356977E-7
1009.000000	0.126327	-1.294347E-7
1010.000000	0.121383	-1.229812E-7
