Wavelength (nm)	EQE (%)	Current (A)	Dark Current (A) -> 	-23.368906000E-12	
400.000000	28.720196	-8.439314E-7
401.000000	31.561510	-1.254875E-6
402.000000	31.875043	-1.926878E-6
403.000000	31.594254	-2.768523E-6
404.000000	31.110070	-3.702729E-6
405.000000	31.038174	-4.707644E-6
406.000000	30.924265	-6.206941E-6
407.000000	30.713923	-6.478601E-6
408.000000	30.334735	-6.968537E-6
409.000000	29.933909	-7.244781E-6
410.000000	29.893875	-7.736541E-6
411.000000	29.830464	-9.829519E-6
412.000000	29.502915	-1.118224E-5
413.000000	29.837464	-1.495432E-5
414.000000	29.779618	-1.686655E-5
415.000000	29.583424	-1.692860E-5
416.000000	29.274322	-1.569888E-5
417.000000	29.214130	-1.377749E-5
418.000000	28.113305	-8.629845E-6
419.000000	28.645040	-6.443855E-6
420.000000	29.436043	-6.833231E-6
421.000000	29.154248	-7.189701E-6
422.000000	28.944224	-6.494950E-6
423.000000	29.143032	-6.909597E-6
424.000000	29.104613	-7.701402E-6
425.000000	29.096509	-8.286224E-6
426.000000	29.047579	-8.797308E-6
427.000000	29.443046	-9.357072E-6
428.000000	29.618037	-1.037805E-5
429.000000	29.567175	-1.155925E-5
430.000000	29.268481	-1.236572E-5
431.000000	29.826394	-1.270708E-5
432.000000	29.993460	-1.272849E-5
433.000000	29.958866	-1.305969E-5
434.000000	30.018854	-1.439715E-5
435.000000	29.938515	-1.466868E-5
436.000000	30.214921	-1.501639E-5
437.000000	30.463091	-1.665541E-5
438.000000	30.430243	-1.690671E-5
439.000000	30.696709	-1.683806E-5
440.000000	30.901280	-1.715614E-5
441.000000	31.288994	-1.898428E-5
442.000000	31.503584	-1.837516E-5
443.000000	31.369063	-1.744129E-5
444.000000	31.651819	-1.766097E-5
445.000000	31.721195	-1.724595E-5
446.000000	31.881351	-1.725126E-5
447.000000	32.273589	-1.980089E-5
448.000000	32.460072	-2.174557E-5
449.000000	32.222665	-1.959226E-5
450.000000	32.023029	-1.864788E-5
451.000000	32.158615	-2.083283E-5
452.000000	32.184646	-2.166402E-5
453.000000	32.002212	-1.988875E-5
454.000000	32.057278	-1.802895E-5
455.000000	32.238476	-1.912501E-5
456.000000	32.291622	-2.239518E-5
457.000000	31.290203	-2.434634E-5
458.000000	32.267176	-2.488756E-5
459.000000	32.290017	-2.336203E-5
460.000000	32.010790	-2.163751E-5
461.000000	32.407214	-2.041559E-5
462.000000	32.369155	-1.980230E-5
463.000000	32.575032	-1.990827E-5
464.000000	32.612023	-2.012334E-5
465.000000	33.390113	-2.071948E-5
466.000000	32.984893	-1.850794E-5
467.000000	32.998972	-1.510224E-5
468.000000	33.285791	-1.604176E-5
469.000000	33.584087	-2.077993E-5
470.000000	33.262131	-2.005216E-5
471.000000	32.907560	-1.526246E-5
472.000000	33.219749	-1.567741E-5
473.000000	33.551407	-2.137006E-5
474.000000	33.631859	-2.058555E-5
475.000000	33.007663	-1.592121E-5
476.000000	33.755048	-1.641021E-5
477.000000	33.992241	-1.889246E-5
478.000000	33.994851	-1.727942E-5
479.000000	34.088204	-1.761451E-5
480.000000	34.464834	-2.117796E-5
481.000000	34.020047	-1.963413E-5
482.000000	33.995143	-1.425652E-5
483.000000	34.117158	-1.611389E-5
484.000000	34.468057	-1.908386E-5
485.000000	34.162272	-1.575745E-5
486.000000	34.138232	-1.557580E-5
487.000000	34.431406	-1.824694E-5
488.000000	34.418447	-1.707342E-5
489.000000	34.515423	-1.560109E-5
490.000000	34.604756	-1.792210E-5
491.000000	34.732712	-1.940507E-5
492.000000	34.584827	-2.136826E-5
493.000000	34.419990	-2.197154E-5
494.000000	34.798578	-1.992148E-5
495.000000	34.444326	-2.033376E-5
496.000000	34.771829	-2.299603E-5
497.000000	34.380356	-2.340258E-5
498.000000	34.240039	-2.162782E-5
499.000000	34.738374	-2.171775E-5
500.000000	34.681877	-2.477902E-5
501.000000	33.924447	-2.855411E-5
502.000000	34.248450	-2.655286E-5
503.000000	34.625439	-2.591569E-5
504.000000	34.768259	-3.074400E-5
505.000000	34.670416	-3.325941E-5
506.000000	34.384893	-2.931845E-5
507.000000	34.575730	-2.459038E-5
508.000000	34.614715	-2.454845E-5
509.000000	35.172411	-2.457235E-5
510.000000	34.764958	-2.120386E-5
511.000000	35.226342	-2.065532E-5
512.000000	35.549219	-2.367430E-5
513.000000	34.989349	-2.756613E-5
514.000000	35.190541	-3.268133E-5
515.000000	35.544951	-3.866435E-5
516.000000	35.554247	-4.938202E-5
517.000000	34.995232	-5.377848E-5
518.000000	35.213394	-4.452651E-5
519.000000	35.499925	-3.816671E-5
520.000000	35.734570	-3.522653E-5
521.000000	35.685775	-2.645591E-5
522.000000	35.966154	-2.254248E-5
523.000000	36.820700	-2.257188E-5
524.000000	36.747120	-3.095359E-5
525.000000	36.731671	-4.124842E-5
526.000000	36.706841	-4.340855E-5
527.000000	37.100588	-4.884664E-5
528.000000	36.510181	-5.252957E-5
529.000000	36.667749	-4.872051E-5
530.000000	37.174973	-3.725186E-5
531.000000	37.242152	-2.749987E-5
532.000000	38.420098	-2.399933E-5
533.000000	38.348997	-2.650863E-5
534.000000	38.788959	-2.861966E-5
535.000000	38.689329	-3.787121E-5
536.000000	38.556574	-5.270122E-5
537.000000	38.192477	-4.699314E-5
538.000000	38.311860	-3.759348E-5
539.000000	39.120548	-3.823264E-5
540.000000	39.144470	-3.018291E-5
541.000000	39.695451	-2.801335E-5
542.000000	40.108106	-2.937703E-5
543.000000	40.365324	-3.565381E-5
544.000000	40.574944	-4.798057E-5
545.000000	40.353668	-4.876336E-5
546.000000	40.512471	-4.493271E-5
547.000000	40.978949	-4.529876E-5
548.000000	41.055665	-3.449735E-5
549.000000	41.886683	-2.835500E-5
550.000000	42.238216	-2.893718E-5
551.000000	42.741579	-3.271771E-5
552.000000	43.176516	-4.486874E-5
553.000000	43.225948	-5.218196E-5
554.000000	43.473229	-5.437955E-5
555.000000	43.568144	-5.486163E-5
556.000000	44.497561	-4.645937E-5
557.000000	44.102448	-3.726915E-5
558.000000	44.719992	-3.695258E-5
559.000000	45.035578	-4.156119E-5
560.000000	45.530629	-5.184529E-5
561.000000	45.830987	-5.756980E-5
562.000000	46.204627	-5.345654E-5
563.000000	46.438005	-5.312359E-5
564.000000	46.978926	-4.400266E-5
565.000000	47.076838	-3.562974E-5
566.000000	47.359087	-3.705505E-5
567.000000	48.088457	-4.092735E-5
568.000000	48.118304	-5.044139E-5
569.000000	48.338302	-5.536559E-5
570.000000	48.468858	-5.284675E-5
571.000000	48.739561	-4.975742E-5
572.000000	48.867926	-4.315948E-5
573.000000	49.693781	-3.685570E-5
574.000000	50.442895	-3.938899E-5
575.000000	51.129947	-4.770618E-5
576.000000	51.027291	-6.154857E-5
577.000000	50.967125	-6.601127E-5
578.000000	50.797901	-6.782418E-5
579.000000	51.288480	-6.198073E-5
580.000000	51.217377	-5.016682E-5
581.000000	52.342636	-4.645749E-5
582.000000	53.025817	-4.527891E-5
583.000000	52.774275	-5.234926E-5
584.000000	52.759790	-6.431483E-5
585.000000	52.820795	-6.576250E-5
586.000000	53.165850	-6.353275E-5
587.000000	52.994215	-5.843940E-5
588.000000	53.306801	-4.862759E-5
589.000000	53.802720	-4.757977E-5
590.000000	53.880104	-4.945187E-5
591.000000	53.682591	-7.384789E-5
592.000000	53.640328	-7.463858E-5
593.000000	53.454335	-7.495638E-5
594.000000	53.885085	-7.255688E-5
595.000000	54.195236	-7.036722E-5
596.000000	54.678040	-7.129718E-5
597.000000	54.749313	-7.322525E-5
598.000000	55.291091	-7.936265E-5
599.000000	54.960729	-8.613268E-5
600.000000	54.882687	-9.093896E-5
601.000000	55.249189	-9.576813E-5
602.000000	54.763194	-9.593166E-5
603.000000	54.705197	-9.458517E-5
604.000000	54.616421	-9.081476E-5
605.000000	54.507288	-8.731278E-5
606.000000	54.610048	-8.841250E-5
607.000000	54.731073	-8.969338E-5
608.000000	55.155459	-9.632877E-5
609.000000	55.502156	-0.000103
610.000000	55.598105	-0.000108
611.000000	55.564849	-0.000111
612.000000	55.269401	-0.000111
613.000000	54.936365	-0.000108
614.000000	54.497976	-0.000102
615.000000	54.304383	-9.712763E-5
616.000000	54.734724	-9.714338E-5
617.000000	55.106981	-0.000101
618.000000	55.206987	-0.000109
619.000000	55.403417	-0.000115
620.000000	55.056464	-0.000117
621.000000	54.897454	-0.000120
622.000000	54.704921	-0.000122
623.000000	54.291571	-0.000125
624.000000	54.512951	-0.000130
625.000000	53.602216	-0.000139
626.000000	52.940520	-0.000131
627.000000	52.236720	-0.000130
628.000000	53.842066	-0.000129
629.000000	54.000290	-0.000130
630.000000	53.701924	-0.000132
631.000000	53.884738	-0.000138
632.000000	53.576450	-0.000144
633.000000	53.825435	-0.000149
634.000000	53.369284	-0.000153
635.000000	53.242193	-0.000153
636.000000	52.898276	-0.000150
637.000000	53.160162	-0.000151
638.000000	52.791714	-0.000151
639.000000	53.097972	-0.000152
640.000000	53.104966	-0.000151
641.000000	52.760749	-0.000147
642.000000	52.697314	-0.000147
643.000000	52.579221	-0.000149
644.000000	52.673627	-0.000156
645.000000	52.828475	-0.000166
646.000000	52.957160	-0.000171
647.000000	52.811510	-0.000170
648.000000	52.777448	-0.000163
649.000000	52.729591	-0.000156
650.000000	52.617284	-0.000152
651.000000	52.522404	-0.000154
652.000000	52.550675	-0.000163
653.000000	52.814081	-0.000170
654.000000	53.079978	-0.000174
655.000000	52.798675	-0.000168
656.000000	52.865608	-0.000159
657.000000	52.754152	-0.000155
658.000000	52.614014	-0.000151
659.000000	52.598133	-0.000157
660.000000	52.804974	-0.000172
661.000000	52.630551	-0.000180
662.000000	52.811548	-0.000182
663.000000	53.013619	-0.000173
664.000000	53.001425	-0.000154
665.000000	52.698701	-0.000143
666.000000	52.652362	-0.000147
667.000000	52.574382	-0.000160
668.000000	52.803876	-0.000175
669.000000	53.035511	-0.000183
670.000000	52.760100	-0.000178
671.000000	52.684194	-0.000164
672.000000	52.842368	-0.000157
673.000000	52.758876	-0.000155
674.000000	52.930793	-0.000157
675.000000	52.603401	-0.000169
676.000000	52.618761	-0.000180
677.000000	52.556734	-0.000180
678.000000	52.682186	-0.000179
679.000000	52.562120	-0.000168
680.000000	52.830876	-0.000159
681.000000	52.744087	-0.000167
682.000000	52.356921	-0.000180
683.000000	52.378192	-0.000191
684.000000	52.335769	-0.000194
685.000000	52.377867	-0.000191
686.000000	52.274693	-0.000176
687.000000	52.375689	-0.000168
688.000000	52.490015	-0.000180
689.000000	52.356306	-0.000191
690.000000	52.293948	-0.000200
691.000000	52.547462	-0.000208
692.000000	52.076383	-0.000200
693.000000	52.148930	-0.000189
694.000000	51.951491	-0.000181
695.000000	51.591494	-0.000184
696.000000	51.501670	-0.000199
697.000000	51.434639	-0.000216
698.000000	51.675287	-0.000227
699.000000	51.579903	-0.000222
700.000000	51.700922	-0.000210
701.000000	51.701275	-0.000203
702.000000	51.404316	-0.000200
703.000000	51.291426	-0.000210
704.000000	51.403980	-0.000233
705.000000	51.365802	-0.000243
706.000000	51.453309	-0.000235
707.000000	51.476622	-0.000224
708.000000	51.850256	-0.000216
709.000000	51.599239	-0.000202
710.000000	51.120079	-0.000204
711.000000	51.510320	-0.000234
712.000000	51.406159	-0.000251
713.000000	51.724509	-0.000243
714.000000	51.301418	-0.000223
715.000000	51.519054	-0.000204
716.000000	51.274546	-0.000198
717.000000	51.138932	-0.000203
718.000000	50.823201	-0.000216
719.000000	50.856489	-0.000230
720.000000	50.700248	-0.000230
721.000000	50.827305	-0.000223
722.000000	50.810249	-0.000209
723.000000	51.069402	-0.000194
724.000000	50.735267	-0.000191
725.000000	50.527058	-0.000200
726.000000	50.424493	-0.000211
727.000000	50.404807	-0.000217
728.000000	50.614383	-0.000213
729.000000	50.856976	-0.000201
730.000000	50.785420	-0.000188
731.000000	50.651049	-0.000183
732.000000	50.332671	-0.000185
733.000000	50.242470	-0.000193
734.000000	50.425967	-0.000202
735.000000	50.495905	-0.000202
736.000000	50.662077	-0.000195
737.000000	50.702829	-0.000188
738.000000	50.369520	-0.000179
739.000000	50.043727	-0.000176
740.000000	50.480886	-0.000181
741.000000	50.280813	-0.000186
742.000000	50.193390	-0.000190
743.000000	50.464471	-0.000187
744.000000	50.495839	-0.000178
745.000000	50.352578	-0.000171
746.000000	50.220702	-0.000168
747.000000	50.269889	-0.000169
748.000000	50.375584	-0.000176
749.000000	50.110983	-0.000178
750.000000	50.472738	-0.000179
751.000000	50.494269	-0.000176
752.000000	50.398717	-0.000168
753.000000	50.268436	-0.000163
754.000000	50.082853	-0.000160
755.000000	50.061110	-0.000162
756.000000	50.123526	-0.000167
757.000000	50.239577	-0.000169
758.000000	50.301139	-0.000167
759.000000	50.258969	-0.000164
760.000000	50.464454	-0.000160
761.000000	50.279491	-0.000155
762.000000	50.249933	-0.000154
763.000000	50.030432	-0.000157
764.000000	50.319786	-0.000162
765.000000	50.423963	-0.000164
766.000000	50.438900	-0.000163
767.000000	50.424821	-0.000159
768.000000	50.112484	-0.000153
769.000000	50.278489	-0.000153
770.000000	50.026302	-0.000155
771.000000	49.909491	-0.000159
772.000000	50.150280	-0.000163
773.000000	50.240992	-0.000163
774.000000	50.338694	-0.000160
775.000000	50.169309	-0.000154
776.000000	49.982924	-0.000150
777.000000	50.001832	-0.000152
778.000000	50.020249	-0.000159
779.000000	50.040782	-0.000165
780.000000	49.945630	-0.000168
781.000000	49.971476	-0.000165
782.000000	49.752450	-0.000158
783.000000	49.653484	-0.000153
784.000000	49.418923	-0.000153
785.000000	49.194104	-0.000160
786.000000	49.056521	-0.000166
787.000000	49.104112	-0.000169
788.000000	49.333543	-0.000168
789.000000	49.253293	-0.000160
790.000000	49.160723	-0.000154
791.000000	48.750713	-0.000151
792.000000	48.410716	-0.000155
793.000000	48.425463	-0.000164
794.000000	48.472214	-0.000171
795.000000	48.643831	-0.000172
796.000000	48.545055	-0.000163
797.000000	48.542390	-0.000154
798.000000	48.147288	-0.000151
799.000000	47.786293	-0.000153
800.000000	47.585201	-0.000161
801.000000	47.489532	-0.000170
802.000000	47.546182	-0.000172
803.000000	47.542764	-0.000164
804.000000	47.547743	-0.000153
805.000000	47.215234	-0.000145
806.000000	46.775823	-0.000143
807.000000	46.504603	-0.000151
808.000000	46.510524	-0.000162
809.000000	46.434003	-0.000168
810.000000	46.494700	-0.000164
811.000000	46.485700	-0.000156
812.000000	46.172007	-0.000146
813.000000	45.959083	-0.000143
814.000000	45.549456	-0.000149
815.000000	45.296901	-0.000159
816.000000	45.447057	-0.000168
817.000000	45.472977	-0.000169
818.000000	45.449697	-0.000157
819.000000	45.299047	-0.000145
820.000000	45.098605	-0.000140
821.000000	44.668791	-0.000143
822.000000	44.510538	-0.000155
823.000000	44.671753	-0.000168
824.000000	44.633586	-0.000170
825.000000	44.525665	-0.000162
826.000000	44.606221	-0.000152
827.000000	44.468916	-0.000148
828.000000	44.166003	-0.000150
829.000000	43.890164	-0.000159
830.000000	43.798388	-0.000170
831.000000	43.911223	-0.000178
832.000000	44.000255	-0.000176
833.000000	44.109522	-0.000167
834.000000	43.738634	-0.000156
835.000000	43.428025	-0.000152
836.000000	43.186326	-0.000158
837.000000	43.027950	-0.000166
838.000000	42.899618	-0.000172
839.000000	43.138691	-0.000173
840.000000	43.053216	-0.000165
841.000000	42.750651	-0.000153
842.000000	42.644976	-0.000148
843.000000	42.569242	-0.000152
844.000000	42.309542	-0.000158
845.000000	42.162606	-0.000164
846.000000	42.211024	-0.000166
847.000000	42.085355	-0.000159
848.000000	42.028123	-0.000147
849.000000	41.711150	-0.000139
850.000000	41.587899	-0.000139
851.000000	41.331414	-0.000143
852.000000	40.992615	-0.000148
853.000000	40.836023	-0.000149
854.000000	40.798635	-0.000144
855.000000	40.563670	-0.000136
856.000000	40.333308	-0.000128
857.000000	40.058376	-0.000124
858.000000	39.619509	-0.000126
859.000000	39.464747	-0.000130
860.000000	39.065962	-0.000127
861.000000	38.839427	-0.000122
862.000000	38.592855	-0.000114
863.000000	38.220614	-0.000108
864.000000	37.828694	-0.000104
865.000000	37.474727	-0.000104
866.000000	36.976135	-0.000105
867.000000	36.669403	-0.000105
868.000000	36.333400	-0.000101
869.000000	35.760763	-9.202721E-5
870.000000	35.373688	-8.683011E-5
871.000000	34.888804	-8.512393E-5
872.000000	34.370299	-8.436323E-5
873.000000	33.789859	-8.368160E-5
874.000000	33.200095	-8.196200E-5
875.000000	32.660198	-7.889326E-5
876.000000	32.065992	-7.436391E-5
877.000000	31.445932	-6.997879E-5
878.000000	30.908555	-6.745078E-5
879.000000	30.251380	-6.541469E-5
880.000000	29.523167	-6.372543E-5
881.000000	28.858953	-6.236408E-5
882.000000	28.183948	-6.039835E-5
883.000000	27.457282	-5.775720E-5
884.000000	26.695282	-5.455163E-5
885.000000	25.981463	-5.139280E-5
886.000000	25.341660	-4.969533E-5
887.000000	24.533319	-4.878653E-5
888.000000	23.833748	-4.762050E-5
889.000000	23.167966	-4.606337E-5
890.000000	22.503833	-4.407637E-5
891.000000	21.730135	-4.145443E-5
892.000000	21.049982	-3.922947E-5
893.000000	20.350526	-3.809894E-5
894.000000	19.716639	-3.739783E-5
895.000000	18.977409	-3.589330E-5
896.000000	18.286869	-3.481268E-5
897.000000	17.684558	-3.382819E-5
898.000000	17.084487	-3.173721E-5
899.000000	16.493458	-2.989280E-5
900.000000	15.878249	-2.892657E-5
901.000000	15.222481	-2.794930E-5
902.000000	14.624682	-2.687866E-5
903.000000	14.042962	-2.572908E-5
904.000000	13.457889	-2.479710E-5
905.000000	12.977400	-2.396815E-5
906.000000	12.471961	-2.276394E-5
907.000000	11.974849	-2.186635E-5
908.000000	11.453277	-2.096325E-5
909.000000	11.004995	-1.985224E-5
910.000000	10.533597	-1.894375E-5
911.000000	10.077372	-1.819162E-5
912.000000	9.673466	-1.761609E-5
913.000000	9.286838	-1.699032E-5
914.000000	8.912294	-1.623338E-5
915.000000	8.532785	-1.541383E-5
916.000000	8.147953	-1.451130E-5
917.000000	7.786808	-1.373974E-5
918.000000	7.460313	-1.322853E-5
919.000000	7.125123	-1.263696E-5
920.000000	6.820894	-1.214862E-5
921.000000	6.549578	-1.175990E-5
922.000000	6.260591	-1.107542E-5
923.000000	5.974705	-1.038718E-5
924.000000	5.712922	-9.879996E-6
925.000000	5.439968	-9.319968E-6
926.000000	5.196544	-8.918428E-6
927.000000	4.969827	-8.578586E-6
928.000000	4.758353	-8.217397E-6
929.000000	4.557391	-7.845157E-6
930.000000	4.345374	-7.294134E-6
931.000000	4.145208	-6.807589E-6
932.000000	3.938690	-6.406977E-6
933.000000	3.748346	-6.020279E-6
934.000000	3.584382	-5.820272E-6
935.000000	3.427716	-5.639151E-6
936.000000	3.265345	-5.322222E-6
937.000000	3.116691	-4.987459E-6
938.000000	2.981211	-4.645294E-6
939.000000	2.836280	-4.391096E-6
940.000000	2.704213	-4.216455E-6
941.000000	2.568607	-3.990481E-6
942.000000	2.451726	-3.821309E-6
943.000000	2.336074	-3.634159E-6
944.000000	2.228321	-3.394246E-6
945.000000	2.127986	-3.182341E-6
946.000000	2.017693	-2.956572E-6
947.000000	1.912730	-2.754059E-6
948.000000	1.824634	-2.641865E-6
949.000000	1.736758	-2.533777E-6
950.000000	1.647382	-2.407332E-6
951.000000	1.571084	-2.279818E-6
952.000000	1.500827	-2.132803E-6
953.000000	1.427483	-2.000203E-6
954.000000	1.351890	-1.873142E-6
955.000000	1.283667	-1.771259E-6
956.000000	1.223395	-1.700661E-6
957.000000	1.161365	-1.607246E-6
958.000000	1.101762	-1.518004E-6
959.000000	1.052602	-1.430241E-6
960.000000	1.000691	-1.310275E-6
961.000000	0.945529	-1.217970E-6
962.000000	0.900975	-1.155522E-6
963.000000	0.854504	-1.102914E-6
964.000000	0.811600	-1.059800E-6
965.000000	0.770901	-9.963665E-7
966.000000	0.733628	-9.343231E-7
967.000000	0.700539	-8.830528E-7
968.000000	0.664863	-8.201090E-7
969.000000	0.628533	-7.696333E-7
970.000000	0.596749	-7.347667E-7
971.000000	0.565852	-6.987813E-7
972.000000	0.538235	-6.600653E-7
973.000000	0.512952	-6.166682E-7
974.000000	0.487775	-5.719871E-7
975.000000	0.462074	-5.313325E-7
976.000000	0.438641	-4.957647E-7
977.000000	0.417243	-4.747372E-7
978.000000	0.396484	-4.557583E-7
979.000000	0.377409	-4.317827E-7
980.000000	0.359677	-4.097320E-7
981.000000	0.342492	-3.856674E-7
982.000000	0.326383	-3.610136E-7
983.000000	0.311337	-3.415361E-7
984.000000	0.295984	-3.258940E-7
985.000000	0.280773	-3.115811E-7
986.000000	0.267379	-2.944897E-7
987.000000	0.254374	-2.746394E-7
988.000000	0.241969	-2.568400E-7
989.000000	0.232021	-2.415834E-7
990.000000	0.221354	-2.269223E-7
991.000000	0.210271	-2.165985E-7
992.000000	0.200068	-2.082259E-7
993.000000	0.191283	-2.009199E-7
994.000000	0.183826	-1.934508E-7
995.000000	0.176330	-1.839243E-7
996.000000	0.168725	-1.746288E-7
997.000000	0.161617	-1.655038E-7
998.000000	0.154073	-1.567076E-7
999.000000	0.146065	-1.494178E-7
1000.000000	0.140557	-1.443226E-7
1001.000000	0.134658	-1.377387E-7
1002.000000	0.129144	-1.307662E-7
1003.000000	0.123588	-1.234204E-7
1004.000000	0.118099	-1.170087E-7
1005.000000	0.113014	-1.126943E-7
1006.000000	0.108323	-1.092939E-7
1007.000000	0.104251	-1.069534E-7
1008.000000	0.100169	-1.036452E-7
1009.000000	0.096648	-9.902573E-8
1010.000000	0.092833	-9.405475E-8
