Wavelength (nm)	EQE (%)	Current (A)	Dark Current (A) -> 	-36.531506000E-12	
400.000000	33.782069	-9.926725E-7
401.000000	37.089600	-1.474670E-6
402.000000	37.677264	-2.277628E-6
403.000000	37.501321	-3.286144E-6
404.000000	36.882422	-4.389756E-6
405.000000	36.772225	-5.577343E-6
406.000000	36.457524	-7.317545E-6
407.000000	36.268110	-7.650166E-6
408.000000	35.802502	-8.224600E-6
409.000000	35.618594	-8.620622E-6
410.000000	35.452004	-9.174986E-6
411.000000	35.364456	-1.165304E-5
412.000000	35.014475	-1.327124E-5
413.000000	35.340098	-1.771220E-5
414.000000	35.203742	-1.993866E-5
415.000000	34.633101	-1.981819E-5
416.000000	34.675410	-1.859531E-5
417.000000	34.484975	-1.626324E-5
418.000000	33.290270	-1.021900E-5
419.000000	33.633327	-7.565997E-6
420.000000	34.489179	-8.006257E-6
421.000000	34.080154	-8.404474E-6
422.000000	33.871790	-7.600673E-6
423.000000	34.019237	-8.065709E-6
424.000000	33.989889	-8.994100E-6
425.000000	33.885504	-9.650054E-6
426.000000	33.928214	-1.027545E-5
427.000000	34.403888	-1.093364E-5
428.000000	34.231414	-1.199456E-5
429.000000	34.511430	-1.349220E-5
430.000000	34.223738	-1.445928E-5
431.000000	34.730313	-1.479632E-5
432.000000	34.646885	-1.470329E-5
433.000000	34.759051	-1.515219E-5
434.000000	34.947446	-1.676092E-5
435.000000	34.798991	-1.705012E-5
436.000000	35.170515	-1.747925E-5
437.000000	35.470969	-1.939342E-5
438.000000	35.827740	-1.990550E-5
439.000000	35.598429	-1.952680E-5
440.000000	35.979326	-1.997543E-5
441.000000	36.449838	-2.211557E-5
442.000000	36.809324	-2.146985E-5
443.000000	36.780977	-2.045033E-5
444.000000	37.307398	-2.081665E-5
445.000000	36.991351	-2.011119E-5
446.000000	37.408619	-2.024211E-5
447.000000	37.681992	-2.311912E-5
448.000000	37.714361	-2.526551E-5
449.000000	37.814914	-2.299250E-5
450.000000	38.018902	-2.213944E-5
451.000000	37.855227	-2.452318E-5
452.000000	38.024585	-2.559498E-5
453.000000	38.358292	-2.383893E-5
454.000000	38.416298	-2.160525E-5
455.000000	38.161570	-2.263880E-5
456.000000	38.272467	-2.654307E-5
457.000000	37.322486	-2.903995E-5
458.000000	38.274568	-2.952104E-5
459.000000	38.349591	-2.774617E-5
460.000000	38.271987	-2.586973E-5
461.000000	38.442432	-2.421760E-5
462.000000	38.548526	-2.358262E-5
463.000000	39.058371	-2.387057E-5
464.000000	39.204165	-2.419104E-5
465.000000	39.868054	-2.473922E-5
466.000000	39.862821	-2.236717E-5
467.000000	39.333310	-1.800120E-5
468.000000	39.921967	-1.924000E-5
469.000000	40.216353	-2.488360E-5
470.000000	39.340550	-2.371655E-5
471.000000	39.354893	-1.825272E-5
472.000000	40.598379	-1.915961E-5
473.000000	40.424213	-2.574759E-5
474.000000	40.491856	-2.478445E-5
475.000000	40.228287	-1.940407E-5
476.000000	40.487809	-1.968338E-5
477.000000	40.221547	-2.235463E-5
478.000000	40.238487	-2.045303E-5
479.000000	40.657628	-2.100915E-5
480.000000	40.743181	-2.503588E-5
481.000000	40.592073	-2.342707E-5
482.000000	40.037884	-1.679066E-5
483.000000	40.719850	-1.923241E-5
484.000000	41.398474	-2.292101E-5
485.000000	40.321821	-1.859856E-5
486.000000	40.455815	-1.845824E-5
487.000000	40.805625	-2.162496E-5
488.000000	40.745375	-2.021192E-5
489.000000	40.417237	-1.826873E-5
490.000000	40.393576	-2.092018E-5
491.000000	40.464046	-2.260715E-5
492.000000	40.172714	-2.482074E-5
493.000000	40.361009	-2.576391E-5
494.000000	40.153649	-2.298715E-5
495.000000	39.820103	-2.350728E-5
496.000000	40.128703	-2.653875E-5
497.000000	39.865020	-2.713597E-5
498.000000	39.715372	-2.508633E-5
499.000000	40.404946	-2.526038E-5
500.000000	39.902420	-2.850892E-5
501.000000	38.992410	-3.281980E-5
502.000000	39.250855	-3.043123E-5
503.000000	39.735825	-2.974060E-5
504.000000	39.830804	-3.522058E-5
505.000000	39.592628	-3.798130E-5
506.000000	39.224564	-3.344502E-5
507.000000	39.077845	-2.779230E-5
508.000000	38.981069	-2.764503E-5
509.000000	39.503457	-2.759813E-5
510.000000	39.338259	-2.399321E-5
511.000000	39.075785	-2.291248E-5
512.000000	39.610269	-2.637879E-5
513.000000	38.996325	-3.072300E-5
514.000000	38.889791	-3.611681E-5
515.000000	39.044043	-4.247052E-5
516.000000	39.303857	-5.458993E-5
517.000000	38.736866	-5.952839E-5
518.000000	38.840507	-4.911291E-5
519.000000	38.976437	-4.190438E-5
520.000000	39.027192	-3.847234E-5
521.000000	38.731256	-2.871370E-5
522.000000	38.854857	-2.435303E-5
523.000000	38.644519	-2.368992E-5
524.000000	39.629161	-3.338125E-5
525.000000	39.283752	-4.411432E-5
526.000000	39.135087	-4.628013E-5
527.000000	39.566485	-5.209324E-5
528.000000	39.321634	-5.657459E-5
529.000000	38.918359	-5.171090E-5
530.000000	39.023530	-3.910424E-5
531.000000	39.016403	-2.880999E-5
532.000000	39.363978	-2.458893E-5
533.000000	39.545386	-2.733563E-5
534.000000	39.781085	-2.935168E-5
535.000000	40.169877	-3.932045E-5
536.000000	39.672626	-5.422670E-5
537.000000	39.495039	-4.859585E-5
538.000000	39.654220	-3.891067E-5
539.000000	40.309668	-3.939477E-5
540.000000	39.452148	-3.042015E-5
541.000000	39.990205	-2.822136E-5
542.000000	40.331126	-2.954038E-5
543.000000	40.563812	-3.582913E-5
544.000000	40.698096	-4.812620E-5
545.000000	40.410214	-4.883169E-5
546.000000	40.629385	-4.506238E-5
547.000000	41.030694	-4.535596E-5
548.000000	41.430015	-3.481190E-5
549.000000	41.318425	-2.797032E-5
550.000000	41.552705	-2.846754E-5
551.000000	41.495795	-3.176409E-5
552.000000	41.975796	-4.362096E-5
553.000000	41.924885	-5.061133E-5
554.000000	42.192141	-5.277707E-5
555.000000	42.523016	-5.354559E-5
556.000000	42.910032	-4.480185E-5
557.000000	42.762636	-3.613693E-5
558.000000	43.493951	-3.593949E-5
559.000000	43.458587	-4.010586E-5
560.000000	43.816581	-4.989352E-5
561.000000	44.136603	-5.544143E-5
562.000000	44.449662	-5.142613E-5
563.000000	44.995045	-5.147289E-5
564.000000	45.351173	-4.247803E-5
565.000000	45.570830	-3.448993E-5
566.000000	45.660642	-3.572614E-5
567.000000	46.025736	-3.917180E-5
568.000000	46.399839	-4.863996E-5
569.000000	46.409871	-5.315681E-5
570.000000	46.665229	-5.088021E-5
571.000000	47.451579	-4.844254E-5
572.000000	47.308549	-4.178226E-5
573.000000	47.391812	-3.514843E-5
574.000000	47.772542	-3.730381E-5
575.000000	48.379244	-4.513967E-5
576.000000	48.687948	-5.872688E-5
577.000000	48.656184	-6.301820E-5
578.000000	48.849687	-6.522297E-5
579.000000	49.100147	-5.933619E-5
580.000000	49.219711	-4.821013E-5
581.000000	50.077911	-4.444740E-5
582.000000	50.500987	-4.312295E-5
583.000000	50.693457	-5.028520E-5
584.000000	50.436705	-6.148296E-5
585.000000	50.730565	-6.316014E-5
586.000000	50.931182	-6.086234E-5
587.000000	51.138737	-5.639327E-5
588.000000	51.330789	-4.682503E-5
589.000000	51.906035	-4.590246E-5
590.000000	51.872473	-4.760924E-5
591.000000	50.418669	-6.935791E-5
592.000000	50.633337	-7.045446E-5
593.000000	50.563682	-7.090296E-5
594.000000	50.842229	-6.845964E-5
595.000000	51.452688	-6.680629E-5
596.000000	52.064802	-6.788966E-5
597.000000	51.764987	-6.923382E-5
598.000000	52.066632	-7.473439E-5
599.000000	51.813000	-8.119966E-5
600.000000	51.648289	-8.557966E-5
601.000000	52.068460	-9.025470E-5
602.000000	51.783141	-9.071134E-5
603.000000	51.848797	-8.964646E-5
604.000000	51.657594	-8.589490E-5
605.000000	51.482283	-8.246716E-5
606.000000	51.689638	-8.368442E-5
607.000000	51.989411	-8.520034E-5
608.000000	52.084830	-9.096593E-5
609.000000	52.879136	-9.846875E-5
610.000000	52.736593	-0.000102
611.000000	52.848029	-0.000106
612.000000	52.481032	-0.000106
613.000000	52.009141	-0.000102
614.000000	51.378730	-9.652857E-5
615.000000	50.963394	-9.115201E-5
616.000000	51.782217	-9.190326E-5
617.000000	52.122082	-9.572157E-5
618.000000	52.528174	-0.000104
619.000000	53.130215	-0.000110
620.000000	52.758078	-0.000112
621.000000	52.301863	-0.000114
622.000000	51.740543	-0.000116
623.000000	51.533244	-0.000119
624.000000	51.421573	-0.000122
625.000000	50.073645	-0.000130
626.000000	49.616632	-0.000123
627.000000	49.225706	-0.000123
628.000000	50.723322	-0.000122
629.000000	50.899044	-0.000123
630.000000	50.668299	-0.000125
631.000000	50.665896	-0.000130
632.000000	50.657917	-0.000136
633.000000	50.735987	-0.000140
634.000000	50.324411	-0.000144
635.000000	50.005553	-0.000143
636.000000	49.846814	-0.000142
637.000000	49.691761	-0.000142
638.000000	49.523357	-0.000142
639.000000	49.840150	-0.000143
640.000000	49.869219	-0.000142
641.000000	49.705784	-0.000138
642.000000	49.485646	-0.000138
643.000000	49.240423	-0.000139
644.000000	49.488470	-0.000147
645.000000	49.365709	-0.000155
646.000000	49.494362	-0.000160
647.000000	49.763538	-0.000160
648.000000	49.780477	-0.000153
649.000000	49.797679	-0.000147
650.000000	49.647516	-0.000143
651.000000	49.268323	-0.000144
652.000000	49.185216	-0.000153
653.000000	49.393322	-0.000159
654.000000	49.798419	-0.000163
655.000000	49.624002	-0.000158
656.000000	49.660384	-0.000150
657.000000	49.564120	-0.000145
658.000000	49.261049	-0.000142
659.000000	49.335897	-0.000147
660.000000	49.132675	-0.000160
661.000000	49.297144	-0.000168
662.000000	49.699830	-0.000171
663.000000	49.763747	-0.000162
664.000000	49.814816	-0.000145
665.000000	49.662066	-0.000135
666.000000	49.583966	-0.000139
667.000000	49.464908	-0.000151
668.000000	49.486406	-0.000164
669.000000	49.535530	-0.000171
670.000000	49.629319	-0.000167
671.000000	49.381958	-0.000154
672.000000	49.683649	-0.000148
673.000000	49.475790	-0.000146
674.000000	49.607074	-0.000148
675.000000	49.377255	-0.000159
676.000000	49.239987	-0.000169
677.000000	49.159997	-0.000169
678.000000	49.500751	-0.000168
679.000000	49.636468	-0.000158
680.000000	49.767097	-0.000150
681.000000	49.589057	-0.000157
682.000000	49.085105	-0.000169
683.000000	48.847944	-0.000178
684.000000	49.027246	-0.000182
685.000000	49.330013	-0.000180
686.000000	49.466974	-0.000166
687.000000	49.345931	-0.000158
688.000000	49.295562	-0.000169
689.000000	49.219184	-0.000179
690.000000	49.264893	-0.000189
691.000000	49.387476	-0.000195
692.000000	49.143728	-0.000189
693.000000	49.229313	-0.000178
694.000000	48.989182	-0.000171
695.000000	48.301484	-0.000172
696.000000	48.092610	-0.000186
697.000000	48.259376	-0.000202
698.000000	48.465314	-0.000213
699.000000	48.664158	-0.000210
700.000000	48.771609	-0.000198
701.000000	49.096609	-0.000193
702.000000	48.521744	-0.000188
703.000000	48.175467	-0.000197
704.000000	48.263680	-0.000218
705.000000	48.337916	-0.000228
706.000000	48.288479	-0.000220
707.000000	48.979702	-0.000213
708.000000	49.400661	-0.000206
709.000000	48.838003	-0.000192
710.000000	48.035398	-0.000192
711.000000	48.455451	-0.000220
712.000000	48.833275	-0.000239
713.000000	49.113354	-0.000231
714.000000	48.878587	-0.000213
715.000000	48.994109	-0.000194
716.000000	49.090106	-0.000190
717.000000	48.846926	-0.000194
718.000000	48.176705	-0.000204
719.000000	48.138314	-0.000218
720.000000	48.108299	-0.000218
721.000000	48.580382	-0.000213
722.000000	49.090742	-0.000202
723.000000	49.005015	-0.000186
724.000000	48.770919	-0.000184
725.000000	48.473900	-0.000192
726.000000	48.193552	-0.000202
727.000000	48.253607	-0.000208
728.000000	48.558001	-0.000204
729.000000	49.244031	-0.000195
730.000000	49.155371	-0.000182
731.000000	48.831778	-0.000176
732.000000	48.192242	-0.000177
733.000000	48.132937	-0.000185
734.000000	48.263906	-0.000194
735.000000	48.400628	-0.000193
736.000000	49.005336	-0.000188
737.000000	49.001453	-0.000182
738.000000	48.735711	-0.000173
739.000000	48.409441	-0.000170
740.000000	48.334074	-0.000174
741.000000	48.262929	-0.000179
742.000000	48.400915	-0.000183
743.000000	48.722103	-0.000181
744.000000	48.855573	-0.000172
745.000000	48.432194	-0.000165
746.000000	48.218527	-0.000161
747.000000	48.013363	-0.000162
748.000000	47.912131	-0.000167
749.000000	47.933453	-0.000170
750.000000	48.259704	-0.000171
751.000000	48.526510	-0.000169
752.000000	48.557857	-0.000162
753.000000	48.342406	-0.000156
754.000000	48.124486	-0.000154
755.000000	48.022116	-0.000155
756.000000	47.979171	-0.000160
757.000000	48.097264	-0.000161
758.000000	48.269325	-0.000161
759.000000	48.209506	-0.000158
760.000000	48.270443	-0.000153
761.000000	47.929236	-0.000147
762.000000	47.525039	-0.000146
763.000000	47.537389	-0.000149
764.000000	47.704891	-0.000154
765.000000	47.869669	-0.000156
766.000000	47.986494	-0.000155
767.000000	47.932103	-0.000151
768.000000	48.021661	-0.000147
769.000000	47.784529	-0.000145
770.000000	47.432964	-0.000147
771.000000	47.112056	-0.000150
772.000000	47.259272	-0.000153
773.000000	47.483579	-0.000154
774.000000	47.575157	-0.000151
775.000000	47.302469	-0.000145
776.000000	47.078851	-0.000141
777.000000	46.753472	-0.000142
778.000000	46.526709	-0.000148
779.000000	46.595908	-0.000154
780.000000	46.698844	-0.000157
781.000000	46.908429	-0.000155
782.000000	46.694731	-0.000148
783.000000	46.365724	-0.000143
784.000000	46.130194	-0.000143
785.000000	45.735296	-0.000148
786.000000	45.576560	-0.000154
787.000000	45.660942	-0.000157
788.000000	46.104357	-0.000157
789.000000	45.994309	-0.000150
790.000000	45.931861	-0.000143
791.000000	45.471434	-0.000141
792.000000	44.941614	-0.000144
793.000000	44.713956	-0.000151
794.000000	44.792466	-0.000158
795.000000	45.105550	-0.000159
796.000000	45.147298	-0.000151
797.000000	45.202369	-0.000144
798.000000	44.730315	-0.000141
799.000000	44.108172	-0.000141
800.000000	43.829087	-0.000148
801.000000	43.852597	-0.000157
802.000000	44.012666	-0.000159
803.000000	44.183875	-0.000153
804.000000	44.266540	-0.000143
805.000000	43.847444	-0.000134
806.000000	43.324961	-0.000133
807.000000	42.882531	-0.000139
808.000000	42.892599	-0.000149
809.000000	43.014815	-0.000155
810.000000	43.132175	-0.000152
811.000000	43.226166	-0.000145
812.000000	43.072453	-0.000136
813.000000	42.725507	-0.000133
814.000000	42.188367	-0.000138
815.000000	42.011497	-0.000147
816.000000	42.236072	-0.000156
817.000000	42.552121	-0.000158
818.000000	42.625259	-0.000147
819.000000	42.557792	-0.000136
820.000000	42.407266	-0.000132
821.000000	41.740392	-0.000134
822.000000	41.455889	-0.000145
823.000000	41.795104	-0.000157
824.000000	42.032218	-0.000160
825.000000	41.926071	-0.000152
826.000000	41.957230	-0.000143
827.000000	42.003194	-0.000139
828.000000	41.703031	-0.000142
829.000000	41.302561	-0.000149
830.000000	41.323683	-0.000160
831.000000	41.595324	-0.000169
832.000000	41.819826	-0.000168
833.000000	42.222344	-0.000160
834.000000	42.100833	-0.000150
835.000000	41.690265	-0.000146
836.000000	41.373437	-0.000152
837.000000	41.137800	-0.000159
838.000000	41.171569	-0.000165
839.000000	41.523326	-0.000167
840.000000	41.777252	-0.000160
841.000000	41.462311	-0.000148
842.000000	41.339305	-0.000143
843.000000	41.195569	-0.000147
844.000000	40.882970	-0.000152
845.000000	40.774491	-0.000158
846.000000	41.074089	-0.000162
847.000000	41.199409	-0.000156
848.000000	41.257921	-0.000144
849.000000	40.853051	-0.000136
850.000000	40.762299	-0.000136
851.000000	40.645810	-0.000141
852.000000	40.220756	-0.000145
853.000000	40.201434	-0.000147
854.000000	40.274988	-0.000143
855.000000	40.217846	-0.000134
856.000000	40.109054	-0.000127
857.000000	39.903209	-0.000124
858.000000	39.552083	-0.000126
859.000000	39.416795	-0.000129
860.000000	39.243630	-0.000128
861.000000	39.139291	-0.000122
862.000000	39.199953	-0.000116
863.000000	38.963917	-0.000110
864.000000	38.670974	-0.000107
865.000000	38.311044	-0.000106
866.000000	37.708281	-0.000107
867.000000	37.601972	-0.000108
868.000000	37.561242	-0.000104
869.000000	37.189011	-9.570268E-5
870.000000	36.885547	-9.054120E-5
871.000000	36.544326	-8.916318E-5
872.000000	36.094134	-8.859445E-5
873.000000	35.579916	-8.811473E-5
874.000000	35.114194	-8.668739E-5
875.000000	34.605273	-8.359174E-5
876.000000	34.248672	-7.942574E-5
877.000000	33.673369	-7.493566E-5
878.000000	33.123552	-7.228450E-5
879.000000	32.569452	-7.042722E-5
880.000000	31.897347	-6.885007E-5
881.000000	31.202701	-6.742891E-5
882.000000	30.582901	-6.553932E-5
883.000000	29.893940	-6.288278E-5
884.000000	29.123080	-5.951282E-5
885.000000	28.347144	-5.607225E-5
886.000000	27.702506	-5.432498E-5
887.000000	26.828139	-5.334997E-5
888.000000	26.032641	-5.201395E-5
889.000000	25.337986	-5.037788E-5
890.000000	24.659876	-4.829923E-5
891.000000	23.825703	-4.545213E-5
892.000000	22.986027	-4.283755E-5
893.000000	22.187792	-4.153855E-5
894.000000	21.473351	-4.072990E-5
895.000000	20.693890	-3.913980E-5
896.000000	19.848283	-3.778514E-5
897.000000	19.201344	-3.672960E-5
898.000000	18.584345	-3.452344E-5
899.000000	17.838821	-3.233114E-5
900.000000	17.102995	-3.115778E-5
901.000000	16.352301	-3.002371E-5
902.000000	15.592843	-2.865804E-5
903.000000	14.960972	-2.741103E-5
904.000000	14.327603	-2.639961E-5
905.000000	13.737224	-2.537148E-5
906.000000	13.170583	-2.403907E-5
907.000000	12.632792	-2.306777E-5
908.000000	12.024344	-2.200849E-5
909.000000	11.465645	-2.068322E-5
910.000000	10.941445	-1.967723E-5
911.000000	10.449470	-1.886333E-5
912.000000	9.959737	-1.813741E-5
913.000000	9.561464	-1.749275E-5
914.000000	9.144773	-1.665683E-5
915.000000	8.735628	-1.578025E-5
916.000000	8.291851	-1.476758E-5
917.000000	7.875162	-1.389564E-5
918.000000	7.497765	-1.329494E-5
919.000000	7.138554	-1.266078E-5
920.000000	6.794646	-1.210187E-5
921.000000	6.525953	-1.171748E-5
922.000000	6.228529	-1.101870E-5
923.000000	5.908712	-1.027245E-5
924.000000	5.632752	-9.741349E-6
925.000000	5.325262	-9.123449E-6
926.000000	5.072698	-8.705880E-6
927.000000	4.837512	-8.350192E-6
928.000000	4.612618	-7.965721E-6
929.000000	4.411176	-7.593461E-6
930.000000	4.213720	-7.073139E-6
931.000000	4.000668	-6.570214E-6
932.000000	3.781628	-6.151487E-6
933.000000	3.573336	-5.739193E-6
934.000000	3.406350	-5.531185E-6
935.000000	3.252210	-5.350415E-6
936.000000	3.088395	-5.033810E-6
937.000000	2.944808	-4.712404E-6
938.000000	2.816099	-4.388017E-6
939.000000	2.669891	-4.133495E-6
940.000000	2.537669	-3.956776E-6
941.000000	2.399725	-3.728114E-6
942.000000	2.283289	-3.558780E-6
943.000000	2.174942	-3.383491E-6
944.000000	2.071209	-3.154929E-6
945.000000	1.975430	-2.954197E-6
946.000000	1.866093	-2.734430E-6
947.000000	1.757353	-2.530338E-6
948.000000	1.670065	-2.418067E-6
949.000000	1.590131	-2.319860E-6
950.000000	1.504136	-2.198006E-6
951.000000	1.433302	-2.079881E-6
952.000000	1.370994	-1.948300E-6
953.000000	1.302720	-1.825384E-6
954.000000	1.229129	-1.703048E-6
955.000000	1.160826	-1.601757E-6
956.000000	1.104531	-1.535426E-6
957.000000	1.046296	-1.447998E-6
958.000000	0.990491	-1.364695E-6
959.000000	0.945733	-1.285031E-6
960.000000	0.896967	-1.174462E-6
961.000000	0.845745	-1.089434E-6
962.000000	0.803095	-1.029989E-6
963.000000	0.759570	-9.803817E-7
964.000000	0.720497	-9.408354E-7
965.000000	0.682183	-8.817009E-7
966.000000	0.650041	-8.278692E-7
967.000000	0.622618	-7.848303E-7
968.000000	0.590025	-7.277968E-7
969.000000	0.557027	-6.820756E-7
970.000000	0.526647	-6.484514E-7
971.000000	0.496629	-6.132966E-7
972.000000	0.470742	-5.772957E-7
973.000000	0.449745	-5.406808E-7
974.000000	0.426892	-5.005930E-7
975.000000	0.403121	-4.635439E-7
976.000000	0.381582	-4.312754E-7
977.000000	0.361952	-4.118268E-7
978.000000	0.343576	-3.949406E-7
979.000000	0.326557	-3.736049E-7
980.000000	0.311881	-3.552848E-7
981.000000	0.296901	-3.343294E-7
982.000000	0.281911	-3.118232E-7
983.000000	0.269134	-2.952390E-7
984.000000	0.255486	-2.813041E-7
985.000000	0.241396	-2.678835E-7
986.000000	0.229139	-2.523725E-7
987.000000	0.217978	-2.353437E-7
988.000000	0.207215	-2.199494E-7
989.000000	0.197883	-2.060386E-7
990.000000	0.188666	-1.934120E-7
991.000000	0.178954	-1.843394E-7
992.000000	0.169676	-1.765938E-7
993.000000	0.162270	-1.704457E-7
994.000000	0.155910	-1.640733E-7
995.000000	0.149425	-1.558607E-7
996.000000	0.143159	-1.481680E-7
997.000000	0.137387	-1.406905E-7
998.000000	0.130642	-1.328760E-7
999.000000	0.123936	-1.267814E-7
1000.000000	0.118484	-1.216587E-7
1001.000000	0.113477	-1.160737E-7
1002.000000	0.108754	-1.101197E-7
1003.000000	0.103637	-1.034966E-7
1004.000000	0.098929	-9.801555E-8
1005.000000	0.094510	-9.424262E-8
1006.000000	0.090254	-9.106358E-8
1007.000000	0.086966	-8.922004E-8
1008.000000	0.084048	-8.696495E-8
1009.000000	0.080855	-8.284405E-8
1010.000000	0.077420	-7.843875E-8
