Voltage (V)	Current (A)	Current Density (A/m^2)	 Dividing Wavelength (nm) = 575  Light Power Density (W/m^2) = 1070.980570  Total Light Power Density (W/m^2) = 1070.980570	
-0.199977	-0.000271	-46.770966
-0.184817	-0.000272	-46.854397
-0.169669	-0.000270	-46.623241
-0.154520	-0.000270	-46.478448
-0.139372	-0.000272	-46.921259
-0.124216	-0.000268	-46.133103
-0.109065	-0.000269	-46.317552
-0.093923	-0.000269	-46.403741
-0.078773	-0.000267	-46.117690
-0.063623	-0.000267	-46.041897
-0.048463	-0.000269	-46.344000
-0.033316	-0.000268	-46.225431
-0.018168	-0.000267	-45.996414
-0.003018	-0.000264	-45.572155
0.012086	-0.000264	-45.555086
0.027241	-0.000264	-45.593810
0.042389	-0.000267	-45.984172
0.057608	-0.000266	-45.866862
0.072759	-0.000263	-45.279741
0.087883	-0.000263	-45.336379
0.103033	-0.000262	-45.121638
0.118179	-0.000262	-45.185069
0.133334	-0.000262	-45.131103
0.148490	-0.000260	-44.833983
0.163642	-0.000259	-44.695638
0.178789	-0.000261	-44.993431
0.193942	-0.000260	-44.803862
0.209094	-0.000257	-44.231500
0.224250	-0.000259	-44.731034
0.239401	-0.000257	-44.224224
0.254549	-0.000257	-44.225086
0.269701	-0.000255	-43.941672
0.284855	-0.000257	-44.308086
0.300003	-0.000254	-43.784914
0.315153	-0.000253	-43.617517
0.330308	-0.000252	-43.448500
0.345464	-0.000251	-43.288672
0.360615	-0.000253	-43.553034
0.375766	-0.000254	-43.738552
0.390880	-0.000250	-43.065086
0.406031	-0.000251	-43.254845
0.421186	-0.000250	-43.066121
0.436339	-0.000247	-42.605069
0.451482	-0.000247	-42.529052
0.466638	-0.000247	-42.610345
0.481792	-0.000245	-42.286983
0.496945	-0.000245	-42.250759
0.512096	-0.000246	-42.454328
0.527244	-0.000241	-41.553431
0.542391	-0.000240	-41.415414
0.557578	-0.000242	-41.641672
0.572732	-0.000240	-41.338155
0.587877	-0.000237	-40.901655
0.603030	-0.000237	-40.897241
0.618185	-0.000237	-40.855224
0.633338	-0.000234	-40.258741
0.648486	-0.000233	-40.171034
0.663636	-0.000233	-40.216500
0.678785	-0.000229	-39.511448
0.693938	-0.000229	-39.403241
0.709091	-0.000228	-39.265293
0.724236	-0.000226	-39.043552
0.739390	-0.000225	-38.783448
0.754547	-0.000221	-38.042103
0.769696	-0.000220	-37.908000
0.784845	-0.000218	-37.650121
0.799994	-0.000218	-37.511759
0.815147	-0.000213	-36.752966
0.830265	-0.000211	-36.332948
0.845418	-0.000211	-36.317517
0.860561	-0.000206	-35.577172
0.875715	-0.000204	-35.121534
0.890869	-0.000199	-34.348638
0.906022	-0.000195	-33.631655
0.921174	-0.000192	-33.140569
0.936318	-0.000187	-32.193379
0.951472	-0.000184	-31.666172
0.966620	-0.000178	-30.623724
0.981773	-0.000172	-29.639103
0.996920	-0.000164	-28.259448
1.012075	-0.000157	-27.127448
1.027226	-0.000147	-25.373241
1.042384	-0.000135	-23.340069
1.057559	-0.000125	-21.564207
1.072709	-0.000109	-18.864052
1.087889	-9.382501E-5	-16.176726
1.103030	-7.494989E-5	-12.922395
1.118173	-5.350996E-5	-9.225855
1.133313	-2.884070E-5	-4.972534
1.148462	-1.845607E-6	-0.318208
1.163607	2.857801E-5	4.927243
1.178751	6.275397E-5	10.819650
1.193881	9.966343E-5	17.183350
1.209057	0.000140	24.072828
1.224210	0.000182	31.432552
1.239362	0.000228	39.276052
1.254503	0.000276	47.524741
1.269651	0.000326	56.187741
1.284783	0.000378	65.248776
1.299925	0.000433	74.627483
