Voltage (V)	Current (A)	Current Density (A/m^2)	 Dividing Wavelength (nm) = 550  Light Power Density (W/m^2) = 1107.265488  Total Light Power Density (W/m^2) = 1107.265488	
-0.199872	-0.000479	-59.834050
-0.189785	-0.000475	-59.321562
-0.179736	-0.000473	-59.155638
-0.169614	-0.000475	-59.417200
-0.159506	-0.000476	-59.446625
-0.149464	-0.000475	-59.436625
-0.139341	-0.000475	-59.328463
-0.129270	-0.000474	-59.194825
-0.119231	-0.000472	-58.941875
-0.109103	-0.000469	-58.586362
-0.098999	-0.000471	-58.839638
-0.088954	-0.000470	-58.784213
-0.078863	-0.000471	-58.819513
-0.068780	-0.000472	-59.023813
-0.058650	-0.000468	-58.497737
-0.048607	-0.000469	-58.668775
-0.038490	-0.000468	-58.483488
-0.028395	-0.000467	-58.371700
-0.018347	-0.000468	-58.477775
-0.008259	-0.000463	-57.889125
0.001802	-0.000465	-58.142225
0.011853	-0.000466	-58.254863
0.021924	-0.000462	-57.717275
0.032040	-0.000457	-57.109600
0.042082	-0.000458	-57.228600
0.052196	-0.000457	-57.078612
0.062293	-0.000460	-57.562438
0.072356	-0.000459	-57.387437
0.082440	-0.000457	-57.179625
0.092550	-0.000453	-56.664912
0.102600	-0.000455	-56.934850
0.112714	-0.000453	-56.676700
0.122787	-0.000452	-56.497900
0.132822	-0.000450	-56.271163
0.142947	-0.000453	-56.573913
0.153057	-0.000450	-56.197738
0.163140	-0.000451	-56.321975
0.173178	-0.000445	-55.645025
0.183301	-0.000448	-56.004538
0.193400	-0.000445	-55.611263
0.203449	-0.000442	-55.238625
0.213538	-0.000443	-55.316337
0.223654	-0.000441	-55.166263
0.233700	-0.000443	-55.338262
0.243806	-0.000439	-54.925787
0.253883	-0.000439	-54.925025
0.263959	-0.000438	-54.743413
0.274049	-0.000438	-54.733038
0.284156	-0.000434	-54.247912
0.294198	-0.000430	-53.811062
0.304312	-0.000431	-53.935513
0.314380	-0.000434	-54.232413
0.324438	-0.000427	-53.379638
0.334551	-0.000426	-53.205500
0.344660	-0.000427	-53.346938
0.354709	-0.000423	-52.884613
0.364788	-0.000425	-53.158763
0.374903	-0.000421	-52.633375
0.384945	-0.000419	-52.358400
0.395060	-0.000419	-52.395338
0.405143	-0.000416	-51.946000
0.415248	-0.000414	-51.701975
0.425297	-0.000410	-51.303312
0.435406	-0.000413	-51.640538
0.445485	-0.000411	-51.361425
0.455573	-0.000409	-51.095625
0.465647	-0.000403	-50.378062
0.475762	-0.000402	-50.192438
0.485813	-0.000399	-49.900650
0.495921	-0.000397	-49.580587
0.506004	-0.000394	-49.221238
0.516044	-0.000393	-49.119763
0.526151	-0.000388	-48.547675
0.536269	-0.000386	-48.190613
0.546315	-0.000382	-47.754375
0.556395	-0.000377	-47.062700
0.566507	-0.000376	-47.000937
0.576543	-0.000373	-46.676250
0.586655	-0.000367	-45.930625
0.596727	-0.000367	-45.900988
0.606824	-0.000361	-45.171088
0.616908	-0.000356	-44.546713
0.627004	-0.000349	-43.608075
0.637057	-0.000344	-42.999800
0.647169	-0.000336	-42.024400
0.657253	-0.000328	-40.961488
0.667359	-0.000323	-40.329575
0.677415	-0.000312	-38.982738
0.687520	-0.000300	-37.470300
0.697594	-0.000289	-36.142075
0.707652	-0.000273	-34.098600
0.717766	-0.000254	-31.809100
0.727880	-0.000229	-28.597850
0.737923	-0.000199	-24.866513
0.747994	-0.000166	-20.781650
0.758099	-0.000120	-15.040313
0.768148	-6.655494E-5	-8.319368
0.778273	4.444629E-7	0.055558
0.788334	8.431781E-5	10.539726
0.798404	0.000186	23.285350
0.808470	0.000310	38.710687
0.818584	0.000454	56.722863
0.828644	0.000625	78.172925
0.838740	0.000818	102.289712
0.848614	0.001034	129.307375
0.858904	0.001283	160.375125
0.869039	0.001552	193.975750
0.879155	0.001844	230.457875
0.889235	0.002155	269.326875
0.899284	0.002484	310.549875
0.909404	0.002835	354.362875
0.919504	0.003200	399.974250
0.929540	0.003578	447.274000
0.939669	0.003974	496.786875
0.949728	0.004379	547.421500
0.959789	0.004796	599.496000
0.969882	0.005225	653.118500
0.980014	0.005665	708.114625
0.990038	0.006109	763.663750
1.000134	0.006566	820.699375
