Voltage (V)	Current (A)	Current Density (A/m^2)	 Dividing Wavelength (nm) = 630  Light Power Density (W/m^2) = 1107.265488  Total Light Power Density (W/m^2) = 1107.265488	
-0.199860	-0.000831	-103.837663
-0.189781	-0.000832	-103.957663
-0.179734	-0.000827	-103.389250
-0.169616	-0.000833	-104.109825
-0.159506	-0.000817	-102.145700
-0.149460	-0.000826	-103.304100
-0.139347	-0.000823	-102.857738
-0.129276	-0.000819	-102.364362
-0.119224	-0.000824	-102.963075
-0.109113	-0.000821	-102.585912
-0.099003	-0.000817	-102.093662
-0.088954	-0.000813	-101.683688
-0.078850	-0.000817	-102.156125
-0.068780	-0.000814	-101.689575
-0.058665	-0.000813	-101.651475
-0.048605	-0.000816	-101.995250
-0.038503	-0.000810	-101.199950
-0.028397	-0.000810	-101.304400
-0.018349	-0.000813	-101.597475
-0.008270	-0.000806	-100.787275
0.001800	-0.000806	-100.785863
0.011855	-0.000803	-100.321775
0.021924	-0.000799	-99.893825
0.032038	-0.000804	-100.489675
0.042082	-0.000799	-99.842863
0.052201	-0.000805	-100.675463
0.062285	-0.000806	-100.687588
0.072355	-0.000798	-99.718575
0.082438	-0.000801	-100.063113
0.092545	-0.000797	-99.617663
0.102594	-0.000793	-99.146213
0.112708	-0.000793	-99.156850
0.122787	-0.000791	-98.907450
0.132828	-0.000788	-98.448300
0.142944	-0.000786	-98.292088
0.153062	-0.000788	-98.448063
0.163142	-0.000781	-97.641888
0.173187	-0.000782	-97.729688
0.183299	-0.000778	-97.310850
0.193407	-0.000778	-97.269575
0.203454	-0.000779	-97.354150
0.213539	-0.000776	-96.993850
0.223651	-0.000776	-96.971375
0.233702	-0.000767	-95.930850
0.243804	-0.000770	-96.293263
0.253880	-0.000768	-96.038838
0.263960	-0.000760	-95.030213
0.274043	-0.000758	-94.786850
0.284152	-0.000763	-95.401800
0.294203	-0.000758	-94.780938
0.304308	-0.000762	-95.265588
0.314389	-0.000752	-94.046113
0.324443	-0.000751	-93.927675
0.334553	-0.000750	-93.742888
0.344670	-0.000743	-92.857000
0.354711	-0.000750	-93.722300
0.364791	-0.000738	-92.276875
0.374905	-0.000740	-92.506425
0.384950	-0.000736	-91.983625
0.395059	-0.000732	-91.499725
0.405136	-0.000732	-91.490550
0.415240	-0.000729	-91.176863
0.425295	-0.000717	-89.650588
0.435411	-0.000721	-90.108438
0.445489	-0.000719	-89.821962
0.455564	-0.000714	-89.195188
0.465646	-0.000712	-88.956988
0.475762	-0.000705	-88.162513
0.485801	-0.000702	-87.693263
0.495919	-0.000699	-87.381325
0.506001	-0.000694	-86.700125
0.516041	-0.000679	-84.823975
0.526155	-0.000684	-85.491100
0.536264	-0.000686	-85.757025
0.546320	-0.000678	-84.764450
0.556390	-0.000675	-84.316450
0.566503	-0.000667	-83.345938
0.576547	-0.000658	-82.225525
0.586653	-0.000650	-81.201100
0.596738	-0.000643	-80.339500
0.606826	-0.000634	-79.193838
0.616904	-0.000635	-79.386888
0.627016	-0.000623	-77.832787
0.637055	-0.000614	-76.690888
0.647172	-0.000607	-75.821737
0.657251	-0.000596	-74.446875
0.667363	-0.000585	-73.084750
0.677411	-0.000568	-71.011138
0.687516	-0.000550	-68.792488
0.697595	-0.000533	-66.652163
0.707647	-0.000516	-64.462750
0.717763	-0.000487	-60.866937
0.727873	-0.000456	-56.939737
0.737924	-0.000417	-52.090750
0.747995	-0.000374	-46.728425
0.758110	-0.000319	-39.888775
0.768153	-0.000253	-31.575900
0.778270	-0.000173	-21.579275
0.788381	-7.469562E-5	-9.336953
0.798414	3.902845E-5	4.878556
0.808468	0.000179	22.373638
0.818588	0.000340	42.480388
0.828641	0.000524	65.526962
0.838747	0.000733	91.682575
0.848828	0.000968	121.030275
0.858913	0.001225	153.123875
0.869024	0.001504	187.998125
0.879150	0.001808	226.016375
0.889234	0.002128	266.031625
0.899277	0.002467	308.321000
0.909396	0.002824	352.963000
0.919500	0.003196	399.441750
0.929549	0.003580	447.495625
0.939671	0.003980	497.544500
0.949744	0.004391	548.851000
0.959781	0.004811	601.396250
0.969898	0.005244	655.496125
0.980009	0.005687	710.844500
0.990051	0.006135	766.865125
1.000134	0.006593	824.107625
