Voltage (V)	Current (A)	Current Density (A/m^2)	 Dividing Wavelength (nm) = 510  Light Power Density (W/m^2) = 1068.678458  Total Light Power Density (W/m^2) = 1068.678458	
-0.199975	-0.000450	-77.552638
-0.184816	-0.000448	-77.293224
-0.169668	-0.000449	-77.337172
-0.154519	-0.000446	-76.959638
-0.139371	-0.000449	-77.358500
-0.124215	-0.000448	-77.294103
-0.109064	-0.000446	-76.944379
-0.093920	-0.000447	-77.048862
-0.078770	-0.000446	-76.964534
-0.063621	-0.000443	-76.408276
-0.048461	-0.000443	-76.354466
-0.033313	-0.000444	-76.502103
-0.018166	-0.000442	-76.124638
-0.003015	-0.000443	-76.396155
0.012092	-0.000440	-75.867069
0.027245	-0.000440	-75.884897
0.042394	-0.000443	-76.365345
0.057614	-0.000438	-75.450345
0.072764	-0.000437	-75.405362
0.087888	-0.000436	-75.143500
0.103037	-0.000436	-75.254948
0.118183	-0.000434	-74.778621
0.133338	-0.000438	-75.448310
0.148494	-0.000431	-74.375017
0.163648	-0.000434	-74.900086
0.178795	-0.000430	-74.179086
0.193949	-0.000433	-74.611828
0.209099	-0.000430	-74.180672
0.224256	-0.000428	-73.744328
0.239405	-0.000426	-73.454017
0.254554	-0.000425	-73.270000
0.269706	-0.000424	-73.176172
0.284858	-0.000426	-73.531879
0.300011	-0.000423	-72.980155
0.315157	-0.000421	-72.506793
0.330312	-0.000419	-72.228000
0.345468	-0.000421	-72.570276
0.360619	-0.000416	-71.784448
0.375770	-0.000417	-71.877034
0.390884	-0.000415	-71.474724
0.406035	-0.000415	-71.499966
0.421189	-0.000413	-71.269207
0.436344	-0.000412	-71.023121
0.451489	-0.000412	-70.952845
0.466643	-0.000409	-70.459172
0.481798	-0.000407	-70.101707
0.496951	-0.000404	-69.612431
0.512101	-0.000406	-69.973914
0.527249	-0.000403	-69.547155
0.542395	-0.000402	-69.280034
0.557583	-0.000397	-68.399207
0.572735	-0.000393	-67.772466
0.587881	-0.000395	-68.043966
0.603035	-0.000390	-67.252293
0.618189	-0.000388	-66.884224
0.633342	-0.000384	-66.273121
0.648491	-0.000385	-66.400362
0.663640	-0.000381	-65.634655
0.678790	-0.000380	-65.499776
0.693942	-0.000377	-64.932328
0.709095	-0.000373	-64.381707
0.724238	-0.000370	-63.855793
0.739394	-0.000366	-63.118914
0.754550	-0.000362	-62.486017
0.769700	-0.000357	-61.610500
0.784848	-0.000355	-61.227914
0.799998	-0.000350	-60.395655
0.815150	-0.000346	-59.604069
0.830268	-0.000341	-58.766638
0.845422	-0.000334	-57.657379
0.860566	-0.000328	-56.550569
0.875720	-0.000324	-55.924724
0.890872	-0.000317	-54.571034
0.906025	-0.000311	-53.566569
0.921177	-0.000302	-52.120672
0.936320	-0.000294	-50.752931
0.951475	-0.000285	-49.172586
0.966624	-0.000273	-47.091776
0.981775	-0.000264	-45.538000
0.996922	-0.000250	-43.180517
1.012077	-0.000238	-40.972397
1.027228	-0.000222	-38.327810
1.042386	-0.000206	-35.531638
1.057561	-0.000188	-32.349517
1.072709	-0.000169	-29.134466
1.087861	-0.000147	-25.296121
1.103009	-0.000123	-21.245741
1.118189	-9.776898E-5	-16.856721
1.133326	-7.155679E-5	-12.337378
1.148480	-4.193403E-5	-7.230005
1.163616	-1.111236E-5	-1.915924
1.178761	2.145247E-5	3.698702
1.193894	5.559553E-5	9.585436
1.209033	9.132180E-5	15.745138
1.224211	0.000128	22.148793
1.239363	0.000167	28.755983
1.254506	0.000206	35.537155
1.269652	0.000247	42.536500
1.284784	0.000288	49.597483
1.299929	0.000329	56.761103
