Voltage (V)	Current (A)	Current Density (A/m^2)	 Dividing Wavelength (nm) = 530  Light Power Density (W/m^2) = 1124.613056  Total Light Power Density (W/m^2) = 1124.613056	
-0.199934	-0.000606	-75.802300
-0.189845	-0.000603	-75.345950
-0.179797	-0.000602	-75.272613
-0.169685	-0.000601	-75.073925
-0.159569	-0.000599	-74.921112
-0.149532	-0.000600	-74.956275
-0.139419	-0.000599	-74.840350
-0.129347	-0.000599	-74.892425
-0.119293	-0.000593	-74.097063
-0.109192	-0.000596	-74.512300
-0.099069	-0.000594	-74.264962
-0.089026	-0.000591	-73.927700
-0.078915	-0.000589	-73.637262
-0.068845	-0.000589	-73.632738
-0.058725	-0.000588	-73.529138
-0.048672	-0.000591	-73.905225
-0.038574	-0.000587	-73.317838
-0.028466	-0.000584	-73.006200
-0.018415	-0.000583	-72.872850
-0.008323	-0.000583	-72.882138
0.001738	-0.000582	-72.738088
0.011786	-0.000583	-72.875287
0.021856	-0.000578	-72.266337
0.031981	-0.000577	-72.072550
0.042024	-0.000576	-71.984050
0.052135	-0.000573	-71.644250
0.062219	-0.000577	-72.068825
0.072297	-0.000571	-71.339663
0.082377	-0.000568	-71.048800
0.092485	-0.000569	-71.156125
0.102535	-0.000565	-70.674450
0.112653	-0.000561	-70.088112
0.122735	-0.000560	-70.057750
0.132777	-0.000558	-69.735938
0.142891	-0.000557	-69.656037
0.153002	-0.000553	-69.068038
0.163084	-0.000557	-69.573788
0.173126	-0.000551	-68.902312
0.183236	-0.000548	-68.538013
0.193350	-0.000549	-68.602963
0.203392	-0.000545	-68.116725
0.213476	-0.000544	-68.057375
0.223593	-0.000546	-68.230275
0.233638	-0.000536	-67.038513
0.243743	-0.000535	-66.840400
0.253826	-0.000531	-66.347925
0.263894	-0.000530	-66.278125
0.273982	-0.000529	-66.184838
0.284091	-0.000524	-65.523575
0.294146	-0.000522	-65.300137
0.304246	-0.000516	-64.466062
0.314331	-0.000514	-64.290800
0.324387	-0.000511	-63.889688
0.334487	-0.000512	-64.004300
0.344609	-0.000509	-63.608137
0.354641	-0.000503	-62.841513
0.364723	-0.000499	-62.345713
0.374839	-0.000491	-61.400713
0.384882	-0.000490	-61.257775
0.394999	-0.000487	-60.875363
0.405073	-0.000482	-60.265288
0.415186	-0.000475	-59.338188
0.425235	-0.000472	-58.996875
0.435351	-0.000466	-58.242700
0.445417	-0.000460	-57.453263
0.455512	-0.000454	-56.743975
0.465584	-0.000453	-56.585662
0.475688	-0.000442	-55.285888
0.485742	-0.000436	-54.480350
0.495852	-0.000429	-53.643887
0.505933	-0.000421	-52.582937
0.515979	-0.000416	-51.955000
0.526088	-0.000408	-50.966525
0.536203	-0.000401	-50.159975
0.546244	-0.000387	-48.426338
0.556333	-0.000380	-47.449563
0.566436	-0.000368	-45.987938
0.576489	-0.000358	-44.792037
0.586596	-0.000349	-43.624100
0.596674	-0.000336	-42.049400
0.606757	-0.000319	-39.813400
0.616830	-0.000305	-38.169625
0.626950	-0.000290	-36.190400
0.636994	-0.000271	-33.909813
0.647102	-0.000255	-31.841750
0.657185	-0.000235	-29.349138
0.667290	-0.000212	-26.505562
0.677347	-0.000188	-23.552050
0.687457	-0.000162	-20.232000
0.697534	-0.000136	-17.015725
0.707572	-0.000105	-13.070950
0.717699	-7.043123E-5	-8.803904
0.727801	-3.377849E-5	-4.222311
0.737806	6.892775E-6	0.861597
0.747912	4.961760E-5	6.202200
0.758021	9.636343E-5	12.045429
0.768065	0.000148	18.499312
0.778194	0.000202	25.267538
0.788296	0.000263	32.923400
0.798352	0.000328	41.012625
0.808416	0.000399	49.866512
0.818537	0.000475	59.371325
0.828586	0.000555	69.343587
0.838690	0.000644	80.513913
0.848765	0.000734	91.809238
0.858816	0.000836	104.464463
0.868921	0.000939	117.375825
0.879082	0.001052	131.512500
0.889168	0.001169	146.137750
0.899221	0.001290	161.217750
0.909325	0.001417	177.076625
0.919440	0.001547	193.408500
0.929488	0.001686	210.779125
0.939595	0.001827	228.401125
0.949666	0.001973	246.669625
0.959722	0.002127	265.896000
0.969830	0.002291	286.325125
0.979940	0.002450	306.222250
0.989990	0.002615	326.928625
1.000070	0.002789	348.569250
