Voltage (V)	Current (A)	Current Density (A/m^2)	 Dividing Wavelength (nm) = 580  Light Power Density (W/m^2) = 1107.265488  Total Light Power Density (W/m^2) = 1107.265488	
-0.199883	-0.000650	-81.308262
-0.189796	-0.000652	-81.514100
-0.179750	-0.000652	-81.473275
-0.169634	-0.000650	-81.249962
-0.159527	-0.000650	-81.198738
-0.149481	-0.000646	-80.800925
-0.139368	-0.000648	-80.999413
-0.129296	-0.000648	-80.969125
-0.119242	-0.000649	-81.070650
-0.109136	-0.000654	-81.758063
-0.099020	-0.000644	-80.483087
-0.088980	-0.000642	-80.293513
-0.078871	-0.000646	-80.806725
-0.068788	-0.000644	-80.459050
-0.058672	-0.000640	-80.007850
-0.048621	-0.000639	-79.815750
-0.038512	-0.000642	-80.219425
-0.028409	-0.000638	-79.803663
-0.018364	-0.000636	-79.548650
-0.008285	-0.000636	-79.453563
0.001789	-0.000634	-79.306737
0.011837	-0.000629	-78.661575
0.021911	-0.000633	-79.129537
0.032028	-0.000629	-78.592312
0.042071	-0.000630	-78.798050
0.052186	-0.000626	-78.277550
0.062269	-0.000629	-78.623013
0.072342	-0.000624	-77.999063
0.082422	-0.000625	-78.170675
0.092535	-0.000625	-78.134088
0.102585	-0.000618	-77.277250
0.112697	-0.000620	-77.522487
0.122775	-0.000618	-77.277788
0.132820	-0.000618	-77.243600
0.142931	-0.000616	-76.992963
0.153044	-0.000609	-76.146438
0.163126	-0.000617	-77.063500
0.173174	-0.000614	-76.706150
0.183285	-0.000611	-76.395062
0.193396	-0.000607	-75.934275
0.203444	-0.000607	-75.819888
0.213527	-0.000609	-76.075812
0.223637	-0.000607	-75.867138
0.233683	-0.000603	-75.337587
0.243788	-0.000603	-75.339737
0.253867	-0.000597	-74.650288
0.263947	-0.000596	-74.551125
0.274030	-0.000594	-74.293100
0.284141	-0.000588	-73.516212
0.294190	-0.000592	-74.039738
0.304297	-0.000587	-73.426800
0.314375	-0.000585	-73.118450
0.324428	-0.000584	-73.003475
0.334540	-0.000586	-73.305600
0.344651	-0.000583	-72.934163
0.354697	-0.000577	-72.105500
0.364779	-0.000575	-71.815137
0.374889	-0.000577	-72.108575
0.384936	-0.000572	-71.440513
0.395046	-0.000566	-70.749212
0.405125	-0.000567	-70.920087
0.415229	-0.000562	-70.278725
0.425276	-0.000556	-69.463912
0.435395	-0.000560	-70.030588
0.445472	-0.000555	-69.421975
0.455550	-0.000551	-68.916213
0.465628	-0.000547	-68.354588
0.475747	-0.000545	-68.077938
0.485784	-0.000541	-67.667125
0.495903	-0.000540	-67.544900
0.505985	-0.000531	-66.418975
0.516027	-0.000530	-66.288125
0.526138	-0.000524	-65.552300
0.536248	-0.000522	-65.268563
0.546296	-0.000514	-64.207063
0.556374	-0.000507	-63.370713
0.566486	-0.000505	-63.158825
0.576530	-0.000497	-62.087513
0.586636	-0.000495	-61.883687
0.596723	-0.000486	-60.734750
0.606809	-0.000480	-59.975500
0.616887	-0.000472	-59.007413
0.626999	-0.000464	-58.042300
0.637036	-0.000456	-57.007550
0.647152	-0.000445	-55.566338
0.657233	-0.000437	-54.595750
0.667342	-0.000422	-52.741913
0.677392	-0.000408	-51.008750
0.687496	-0.000393	-49.156487
0.697577	-0.000374	-46.723925
0.707624	-0.000349	-43.658050
0.717739	-0.000323	-40.323037
0.727858	-0.000294	-36.779738
0.737902	-0.000253	-31.585075
0.747978	-0.000211	-26.424512
0.758091	-0.000155	-19.354000
0.768144	-9.265811E-5	-11.582264
0.778243	-1.604935E-5	-2.006169
0.788330	6.975818E-5	8.719773
0.798384	0.000175	21.879625
0.808450	0.000291	36.399487
0.818573	0.000425	53.093625
0.828622	0.000574	71.791475
0.838731	0.000740	92.457075
0.848806	0.000923	115.333363
0.858892	0.001120	139.937750
0.869008	0.001333	166.684250
0.879131	0.001562	195.293250
0.889208	0.001804	225.513875
0.899255	0.002058	257.235875
0.909377	0.002326	290.767500
0.919478	0.002606	325.697625
0.929528	0.002895	361.843125
0.939647	0.003196	399.513125
0.949720	0.003506	438.227000
0.959770	0.003824	477.961125
0.969874	0.004152	519.012625
0.979985	0.004489	561.097000
0.990024	0.004831	603.868000
1.000106	0.005181	647.643750
