Voltage (V)	Current (A)	Current Density (A/m^2)	 Dividing Wavelength (nm) = 660  Light Power Density (W/m^2) = 1107.265488  Total Light Power Density (W/m^2) = 1107.265488	
-0.199834	-0.000467	-58.430900
-0.189756	-0.000468	-58.472025
-0.179708	-0.000467	-58.419038
-0.169592	-0.000467	-58.362525
-0.159482	-0.000466	-58.244512
-0.149435	-0.000465	-58.137825
-0.139326	-0.000463	-57.936150
-0.129240	-0.000461	-57.589413
-0.119198	-0.000460	-57.497688
-0.109090	-0.000459	-57.409250
-0.098974	-0.000455	-56.852700
-0.088938	-0.000460	-57.502263
-0.078829	-0.000458	-57.244525
-0.068744	-0.000454	-56.807613
-0.058631	-0.000455	-56.836200
-0.048583	-0.000455	-56.913950
-0.038475	-0.000453	-56.613325
-0.028368	-0.000450	-56.204800
-0.018320	-0.000444	-55.512763
-0.008241	-0.000449	-56.124450
0.001823	-0.000448	-56.055313
0.011869	-0.000446	-55.771488
0.021947	-0.000447	-55.846900
0.032057	-0.000445	-55.598588
0.042103	-0.000442	-55.227950
0.052221	-0.000443	-55.316388
0.062309	-0.000440	-54.976800
0.072379	-0.000438	-54.708175
0.082455	-0.000436	-54.500538
0.092571	-0.000440	-54.984225
0.102618	-0.000436	-54.452075
0.112730	-0.000435	-54.413362
0.122812	-0.000432	-53.979550
0.132858	-0.000432	-53.969163
0.142966	-0.000427	-53.394313
0.153079	-0.000431	-53.886000
0.163162	-0.000425	-53.178850
0.173207	-0.000424	-52.997238
0.183322	-0.000425	-53.185363
0.193434	-0.000421	-52.566063
0.203479	-0.000424	-52.989925
0.213560	-0.000419	-52.417588
0.223671	-0.000417	-52.163375
0.233715	-0.000417	-52.135050
0.243823	-0.000411	-51.394750
0.253910	-0.000413	-51.673350
0.263983	-0.000412	-51.471463
0.274066	-0.000409	-51.140100
0.284178	-0.000405	-50.581362
0.294224	-0.000405	-50.586938
0.304331	-0.000404	-50.511938
0.314408	-0.000400	-50.062413
0.324464	-0.000395	-49.349463
0.334574	-0.000394	-49.276513
0.344687	-0.000391	-48.860062
0.354732	-0.000388	-48.447175
0.364811	-0.000386	-48.304138
0.374923	-0.000384	-48.001888
0.384968	-0.000381	-47.620263
0.395081	-0.000375	-46.889650
0.405161	-0.000369	-46.133300
0.415264	-0.000367	-45.890050
0.425313	-0.000362	-45.255338
0.435433	-0.000358	-44.688088
0.445511	-0.000352	-43.970550
0.455589	-0.000346	-43.286863
0.465667	-0.000339	-42.325850
0.475776	-0.000331	-41.391950
0.485823	-0.000329	-41.124412
0.495940	-0.000323	-40.324513
0.506019	-0.000313	-39.167037
0.516064	-0.000307	-38.406762
0.526169	-0.000295	-36.865963
0.536281	-0.000288	-35.980450
0.546329	-0.000280	-35.018600
0.556405	-0.000267	-33.424888
0.566520	-0.000260	-32.494563
0.576563	-0.000248	-31.052075
0.586669	-0.000236	-29.471763
0.596751	-0.000222	-27.739225
0.606843	-0.000208	-26.014925
0.616919	-0.000195	-24.383525
0.627032	-0.000178	-22.199350
0.637073	-0.000160	-19.978675
0.647185	-0.000144	-18.018137
0.657269	-0.000122	-15.233088
0.667377	-0.000102	-12.790975
0.677410	-7.658023E-5	-9.572529
0.687512	-5.140471E-5	-6.425589
0.697588	-2.310281E-5	-2.887851
0.706727	8.635891E-6	1.079486
0.717725	4.778723E-5	5.973404
0.727842	9.054070E-5	11.317588
0.737899	0.000142	17.810688
0.747973	0.000200	24.987113
0.758089	0.000269	33.590375
0.768137	0.000346	43.309063
0.778258	0.000438	54.689225
0.788363	0.000546	68.293163
0.798417	0.000672	83.946538
0.808485	0.000815	101.913150
0.818589	0.000983	122.924762
0.828688	0.001167	145.905250
0.838801	0.001379	172.407500
0.848884	0.001611	201.379375
0.858928	0.001865	233.077250
0.869043	0.002142	267.747625
0.879165	0.002439	304.935000
0.889243	0.002755	344.417375
0.899289	0.003088	386.046750
0.909405	0.003441	430.166750
0.919518	0.003809	476.159500
0.929555	0.004190	523.782375
0.939676	0.004586	573.258500
0.949743	0.004992	624.056750
0.959790	0.005410	676.235875
0.969896	0.005840	729.949750
0.980016	0.006279	784.828625
0.990051	0.006723	840.424875
1.000137	0.007178	897.310000
