Voltage (V)	Current (A)	Current Density (A/m^2)	 Dividing Wavelength (nm) = 730  Light Power Density (W/m^2) = 1076.543839  Total Light Power Density (W/m^2) = 1076.543839	
-0.199804	-0.007564	-945.448750
-0.193121	-0.007323	-915.337500
-0.186408	-0.007082	-885.193125
-0.179671	-0.006835	-854.339250
-0.172965	-0.006593	-824.076750
-0.166250	-0.006357	-794.663750
-0.159542	-0.006110	-763.808000
-0.152798	-0.005867	-733.411250
-0.146096	-0.005628	-703.558250
-0.139382	-0.005387	-673.357375
-0.132707	-0.005149	-643.668500
-0.125928	-0.004899	-612.429750
-0.119259	-0.004657	-582.087250
-0.112558	-0.004422	-552.714875
-0.105844	-0.004177	-522.159250
-0.099141	-0.003929	-491.145500
-0.092401	-0.003691	-461.403875
-0.085700	-0.003451	-431.361875
-0.078991	-0.003206	-400.768375
-0.072313	-0.002966	-370.714625
-0.065540	-0.002723	-340.436875
-0.058866	-0.002485	-310.617625
-0.052159	-0.002242	-280.218500
-0.045453	-0.002003	-250.362125
-0.038742	-0.001762	-220.255375
-0.032006	-0.001517	-189.616000
-0.025302	-0.001273	-159.154750
-0.018590	-0.001036	-129.482250
-0.011935	-0.000791	-98.855038
-0.005153	-0.000551	-68.909913
0.001469	-0.000310	-38.780812
0.008166	-6.734379E-5	-8.417974
0.014859	0.000171	21.365563
0.021603	0.000419	52.386637
0.028317	0.000660	82.500600
0.034982	0.000899	112.411200
0.041720	0.001145	143.127000
0.048431	0.001384	172.950625
0.055183	0.001631	203.834250
0.061893	0.001873	234.062625
0.068593	0.002116	264.511875
0.075276	0.002352	293.963875
0.082048	0.002596	324.531375
0.088726	0.002845	355.626000
0.095439	0.003081	385.099875
0.102141	0.003321	415.167625
0.108848	0.003568	445.950125
0.115586	0.003809	476.094750
0.122296	0.004048	505.982875
0.128967	0.004288	535.985375
0.135676	0.004535	566.849625
0.142413	0.004776	597.010125
0.149131	0.005011	626.427625
0.155833	0.005256	656.944500
0.162540	0.005498	687.270125
0.169284	0.005743	717.869750
0.175985	0.005983	747.853125
0.182695	0.006226	778.233500
0.189376	0.006468	808.453250
0.196080	0.006718	839.717625
0.202822	0.006951	868.898875
0.209528	0.007191	898.935250
0.216243	0.007437	929.645625
0.222950	0.007676	959.535625
0.229682	0.007921	990.071375
0.236389	0.008165	1020.590625
0.243069	0.008405	1050.606125
0.249779	0.008645	1080.589625
0.256518	0.008888	1110.961625
0.263221	0.009126	1140.802625
0.269932	0.009372	1171.440125
0.276639	0.009614	1201.723875
0.283319	0.009857	1232.126375
0.290085	0.010097	1262.165000
0.296758	0.010340	1292.528750
0.303531	0.010585	1323.118750
0.310249	0.010827	1353.408750
0.316991	0.011068	1383.546250
0.323695	0.011310	1413.716250
0.330408	0.011550	1443.767500
0.337088	0.011792	1474.037500
0.343787	0.012033	1504.100000
0.350537	0.012278	1534.761250
0.357241	0.012523	1565.317500
0.363949	0.012761	1595.178750
0.370661	0.012996	1624.518750
0.377403	0.013246	1655.792500
0.384111	0.013486	1685.737500
0.390783	0.013727	1715.822500
0.397491	0.013970	1746.237500
0.404233	0.014210	1776.233750
0.410939	0.014450	1806.187500
0.417646	0.014696	1837.043750
0.424354	0.014935	1866.815000
0.431067	0.015179	1897.410000
0.437806	0.015421	1927.655000
0.444511	0.015664	1957.996250
0.451186	0.015903	1987.828750
0.457899	0.016145	2018.138750
0.464647	0.016384	2048.047500
0.471352	0.016629	2078.576250
0.478060	0.016873	2109.085000
0.484763	0.017114	2139.227500
0.491502	0.017353	2169.157500
0.498215	0.017597	2199.665000
0.504898	0.017841	2230.103750
0.511592	0.018080	2259.985000
0.518307	0.018316	2289.543750
0.525051	0.018564	2320.557500
0.531752	0.018807	2350.895000
0.538464	0.019048	2381.016250
0.545139	0.019287	2410.888750
0.551905	0.019530	2441.236250
0.558583	0.019774	2471.776250
0.565299	0.020017	2502.177500
0.571999	0.020250	2531.306250
0.578712	0.020499	2562.400000
0.585450	0.020737	2592.147500
0.592159	0.020980	2622.557500
0.598840	0.021222	2652.691250
0.605545	0.021461	2682.595000
0.612289	0.021706	2713.241250
0.618998	0.021947	2743.371250
0.625705	0.022182	2772.758750
0.632414	0.022430	2803.783750
0.639145	0.022668	2833.491250
0.645860	0.022911	2863.832500
0.652537	0.023153	2894.105000
0.659248	0.023394	2924.275000
0.665953	0.023633	2954.160000
0.672689	0.023882	2985.293750
0.679395	0.024118	3014.730000
0.686101	0.024359	3044.861250
0.692780	0.024607	3075.908750
0.699552	0.024848	3106.005000
0.706254	0.025082	3135.302500
0.712935	0.025329	3166.083750
0.719645	0.025566	3195.746250
0.726358	0.025807	3225.820000
0.733095	0.026050	3256.305000
0.739803	0.026294	3286.705000
0.746517	0.026535	3316.815000
0.753189	0.026775	3346.833750
0.759961	0.027020	3377.450000
0.766640	0.027258	3407.193750
0.773348	0.027499	3437.426250
0.780056	0.027739	3467.313750
0.786795	0.027981	3497.660000
0.793508	0.028227	3528.378750
0.800206	0.028465	3558.133750
