Wavelength (nm)	EQE (%)	Current (A)	Dark Current (A) -> 	-49.031758000E-12	
400.000000	24.550663	-5.192721E-7
403.000000	25.460053	-1.223882E-6
406.000000	23.504359	-1.836176E-6
409.000000	23.680413	-2.604250E-6
412.000000	23.110663	-3.893183E-6
415.000000	22.318881	-1.795465E-6
418.000000	24.928377	-1.738956E-6
421.000000	23.802010	-1.952193E-6
424.000000	24.413977	-1.810384E-6
427.000000	24.448423	-2.369119E-6
430.000000	24.586824	-3.800889E-6
433.000000	24.598189	-3.563572E-6
436.000000	24.930232	-3.580515E-6
439.000000	25.500110	-4.017827E-6
442.000000	26.014721	-4.304257E-6
445.000000	25.971713	-4.882352E-6
448.000000	25.893679	-5.526159E-6
451.000000	25.931983	-4.876541E-6
454.000000	27.237906	-4.715234E-6
457.000000	26.583218	-5.137746E-6
460.000000	28.361058	-4.030504E-6
463.000000	26.633223	-6.507857E-6
466.000000	28.117560	-5.411302E-6
469.000000	28.117588	-4.979619E-6
472.000000	28.474964	-4.666005E-6
475.000000	28.206614	-4.383809E-6
478.000000	28.310846	-5.648155E-6
481.000000	29.441315	-4.890972E-6
484.000000	29.300836	-4.694221E-6
487.000000	27.990148	-6.193341E-6
490.000000	28.860201	-5.255816E-6
493.000000	28.618870	-5.299128E-6
496.000000	27.874621	-6.209766E-6
499.000000	28.407947	-6.307233E-6
502.000000	28.835621	-5.816041E-6
505.000000	28.318153	-6.955560E-6
508.000000	27.081423	-8.584863E-6
511.000000	26.081775	-9.505185E-6
514.000000	27.872866	-6.510004E-6
517.000000	28.959585	-6.662349E-6
520.000000	26.554282	-1.051347E-5
523.000000	26.238410	-9.463824E-6
526.000000	29.493118	-6.310984E-6
529.000000	28.009085	-7.933662E-6
532.000000	27.982584	-8.612777E-6
535.000000	29.874267	-4.280741E-6
538.000000	28.987841	-7.257133E-6
541.000000	27.242478	-9.149775E-6
544.000000	30.064600	-4.579259E-6
547.000000	28.223491	-7.995429E-6
550.000000	28.485042	-7.303260E-6
553.000000	29.691747	-5.496456E-6
556.000000	28.430026	-7.139333E-6
559.000000	30.004108	-5.220923E-6
562.000000	28.127064	-6.270139E-6
565.000000	28.325066	-5.915359E-6
568.000000	27.563579	-5.680281E-6
571.000000	27.231048	-6.668696E-6
574.000000	26.051635	-5.895862E-6
577.000000	24.235898	-8.163374E-6
580.000000	24.534471	-5.873015E-6
583.000000	23.051036	-5.852426E-6
586.000000	22.218554	-7.322810E-6
589.000000	21.959146	-4.988681E-6
592.000000	23.251920	-3.038955E-6
595.000000	21.861904	-3.416098E-6
598.000000	20.873988	-2.589880E-6
601.000000	20.633991	-3.498922E-6
604.000000	19.443036	-3.413428E-6
607.000000	19.157248	-3.605508E-6
610.000000	18.475842	-3.547634E-6
613.000000	17.747878	-5.804618E-6
616.000000	16.053149	-6.660110E-6
619.000000	15.593448	-3.714454E-6
622.000000	15.202391	-7.193537E-6
625.000000	13.235170	-7.521327E-6
628.000000	12.167774	-3.588035E-6
631.000000	11.159587	-3.975747E-6
634.000000	9.606081	-4.182425E-6
637.000000	8.217787	-4.588528E-6
640.000000	6.778029	-3.735231E-6
643.000000	5.726450	-3.000162E-6
646.000000	4.660623	-2.911646E-6
649.000000	3.685102	-2.233176E-6
652.000000	2.973391	-2.254697E-6
655.000000	2.350605	-1.638974E-6
658.000000	1.879017	-1.418257E-6
661.000000	1.470551	-1.330368E-6
664.000000	1.180074	-9.437725E-7
667.000000	0.969306	-8.746189E-7
670.000000	0.795412	-7.198973E-7
673.000000	0.661911	-6.259749E-7
676.000000	0.558412	-5.587146E-7
679.000000	0.484511	-4.818706E-7
682.000000	0.423700	-4.289500E-7
685.000000	0.379916	-4.073871E-7
688.000000	0.340705	-3.628807E-7
691.000000	0.316236	-3.405397E-7
694.000000	0.292003	-3.027107E-7
697.000000	0.274515	-2.780477E-7
700.000000	0.257710	-2.872458E-7
703.000000	0.241430	-2.734437E-7
706.000000	0.227300	-2.653671E-7
709.000000	0.216857	-2.447360E-7
712.000000	0.208406	-2.680876E-7
715.000000	0.199254	-2.226224E-7
718.000000	0.189647	-2.007441E-7
721.000000	0.181074	-2.375227E-7
724.000000	0.169587	-1.736078E-7
727.000000	0.164309	-1.896986E-7
730.000000	0.152245	-1.553840E-7
733.000000	0.147939	-1.471004E-7
736.000000	0.138763	-1.395629E-7
739.000000	0.131509	-1.104758E-7
742.000000	0.126895	-1.207554E-7
745.000000	0.118055	-9.152649E-8
748.000000	0.115265	-9.455611E-8
751.000000	0.106406	-8.405059E-8
754.000000	0.103517	-7.127223E-8
757.000000	0.099140	-7.787491E-8
760.000000	0.093083	-5.932295E-8
763.000000	0.090115	-6.276885E-8
766.000000	0.084902	-5.380848E-8
769.000000	0.081238	-4.624776E-8
772.000000	0.076408	-4.820334E-8
775.000000	0.071616	-3.851773E-8
778.000000	0.069525	-4.113826E-8
781.000000	0.064822	-3.637690E-8
784.000000	0.061876	-3.274218E-8
787.000000	0.058210	-3.352540E-8
790.000000	0.054474	-2.854791E-8
793.000000	0.052081	-3.059355E-8
796.000000	0.048302	-2.690892E-8
799.000000	0.045590	-2.548811E-8
802.000000	0.042579	-2.534952E-8
805.000000	0.039702	-2.193676E-8
808.000000	0.036834	-2.245818E-8
811.000000	0.034084	-1.889746E-8
814.000000	0.031975	-1.882134E-8
817.000000	0.029614	-1.742846E-8
820.000000	0.027693	-1.590713E-8
823.000000	0.025712	-1.647069E-8
826.000000	0.023697	-1.366762E-8
829.000000	0.022167	-1.456279E-8
832.000000	0.020293	-1.263233E-8
835.000000	0.019130	-1.293286E-8
838.000000	0.017705	-1.210582E-8
841.000000	0.016418	-1.052262E-8
844.000000	0.015014	-1.050932E-8
847.000000	0.013867	-9.100804E-9
850.000000	0.012789	-9.131313E-9
853.000000	0.011648	-7.770312E-9
856.000000	0.010696	-7.191017E-9
859.000000	0.009776	-6.620766E-9
862.000000	0.008956	-5.542921E-9
865.000000	0.008179	-5.069369E-9
868.000000	0.007476	-4.311944E-9
871.000000	0.006843	-3.853287E-9
874.000000	0.006294	-3.262016E-9
877.000000	0.005671	-2.793768E-9
880.000000	0.005161	-2.501437E-9
883.000000	0.004675	-2.123091E-9
886.000000	0.004288	-1.921153E-9
889.000000	0.003866	-1.663021E-9
892.000000	0.003493	-1.449707E-9
895.000000	0.003215	-1.283625E-9
898.000000	0.002906	-1.152215E-9
901.000000	0.002633	-1.014107E-9
904.000000	0.002404	-9.656266E-10
907.000000	0.002146	-8.443764E-10
910.000000	0.001959	-7.584025E-10
913.000000	0.001768	-7.181051E-10
916.000000	0.001601	-6.154198E-10
919.000000	0.001465	-5.839502E-10
922.000000	0.001315	-5.271292E-10
925.000000	0.001205	-4.597378E-10
928.000000	0.001091	-4.332540E-10
931.000000	0.000999	-3.667014E-10
934.000000	0.000916	-3.561314E-10
937.000000	0.000832	-3.149247E-10
940.000000	0.000764	-2.686326E-10
943.000000	0.000697	-2.496746E-10
946.000000	0.000638	-2.155946E-10
949.000000	0.000587	-2.090720E-10
952.000000	0.000535	-1.810279E-10
955.000000	0.000503	-1.609318E-10
958.000000	0.000473	-1.465667E-10
961.000000	0.000436	-1.295446E-10
964.000000	0.000406	-1.203471E-10
967.000000	0.000386	-1.086860E-10
970.000000	0.000358	-9.938303E-11
973.000000	0.000340	-9.030282E-11
976.000000	0.000322	-8.231371E-11
979.000000	0.000312	-7.346823E-11
982.000000	0.000307	-6.652907E-11
985.000000	0.000292	-6.204187E-11
988.000000	0.000282	-5.860448E-11
991.000000	0.000274	-5.558369E-11
994.000000	0.000264	-5.005820E-11
997.000000	0.000260	-4.764737E-11
1000.000000	0.000251	-4.630410E-11
1003.000000	0.000244	-4.464411E-11
1006.000000	0.000234	-4.165262E-11
1009.000000	0.000231	-3.949987E-11
1012.000000	0.000225	-3.927700E-11
1015.000000	0.000221	-3.907160E-11
1018.000000	0.000213	-3.781645E-11
1021.000000	0.000207	-3.757593E-11
1024.000000	0.000199	-3.733545E-11
1027.000000	0.000181	-3.722987E-11
1030.000000	0.000177	-3.927111E-11
1033.000000	0.000157	-3.643207E-11
1036.000000	0.000144	-3.722397E-11
1039.000000	0.000129	-3.754074E-11
1042.000000	0.000142	-3.700696E-11
1045.000000	0.000148	-3.231437E-11
1048.000000	0.000151	-3.222640E-11
1051.000000	0.000148	-3.216773E-11
1054.000000	0.000130	-3.222051E-11
1057.000000	0.000117	-3.262526E-11
1060.000000	0.000109	-3.442015E-11
1063.000000	9.618098E-5	-3.694241E-11
1066.000000	8.086480E-5	-4.047359E-11
1069.000000	5.933475E-5	-6.334402E-11
1072.000000	4.123543E-5	-9.005061E-11
1075.000000	6.059856E-5	-3.929457E-11
1078.000000	6.935935E-5	-3.138757E-11
1081.000000	7.925768E-5	-2.921139E-11
1084.000000	8.686341E-5	-2.989183E-11
1087.000000	8.750178E-5	-2.732851E-11
1090.000000	8.959841E-5	-2.727571E-11
1093.000000	9.382148E-5	-2.735781E-11
1096.000000	9.382302E-5	-2.699416E-11
1099.000000	8.350263E-5	-2.586205E-11
