Wavelength (nm)	EQE (%)	Current (A)	Dark Current (A) -> 	-110.274216000E-9	
400.000000	6.175691	-1.306223E-7
403.000000	3.977968	-1.912236E-7
406.000000	3.389215	-2.647677E-7
409.000000	3.144810	-3.458500E-7
412.000000	2.815969	-4.743734E-7
415.000000	6.437579	-5.178776E-7
418.000000	6.514357	-4.544291E-7
421.000000	5.331674	-4.372932E-7
424.000000	5.856843	-4.343059E-7
427.000000	4.669946	-4.525305E-7
430.000000	3.553034	-5.492653E-7
433.000000	4.513073	-6.538148E-7
436.000000	4.905675	-7.045599E-7
439.000000	4.824680	-7.601822E-7
442.000000	4.959769	-8.206169E-7
445.000000	4.786016	-8.997102E-7
448.000000	5.790426	-1.235777E-6
451.000000	6.028251	-1.133620E-6
454.000000	6.350594	-1.099370E-6
457.000000	6.345595	-1.226415E-6
460.000000	4.237410	-6.021954E-7
463.000000	6.338986	-1.548938E-6
466.000000	6.827026	-1.313880E-6
469.000000	7.072696	-1.252573E-6
472.000000	7.162990	-1.173752E-6
475.000000	7.271279	-1.130086E-6
478.000000	6.991444	-1.394828E-6
481.000000	7.508517	-1.247361E-6
484.000000	7.660347	-1.227247E-6
487.000000	7.115483	-1.574433E-6
490.000000	7.497721	-1.365432E-6
493.000000	7.415133	-1.373001E-6
496.000000	7.174421	-1.598281E-6
499.000000	7.358323	-1.633721E-6
502.000000	7.495994	-1.511915E-6
505.000000	7.318662	-1.797624E-6
508.000000	7.197499	-2.281621E-6
511.000000	7.094187	-2.585390E-6
514.000000	7.563783	-1.766602E-6
517.000000	7.333846	-1.687201E-6
520.000000	6.944600	-2.749532E-6
523.000000	7.166069	-2.584700E-6
526.000000	7.786712	-1.666213E-6
529.000000	7.244576	-2.052049E-6
532.000000	7.373483	-2.269489E-6
535.000000	8.288534	-1.187680E-6
538.000000	7.267387	-1.819397E-6
541.000000	7.045486	-2.366327E-6
544.000000	8.145739	-1.240710E-6
547.000000	6.994747	-1.981541E-6
550.000000	7.310730	-1.874393E-6
553.000000	7.437544	-1.376818E-6
556.000000	7.004208	-1.758893E-6
559.000000	7.641281	-1.329636E-6
562.000000	6.844903	-1.525879E-6
565.000000	7.027307	-1.467571E-6
568.000000	6.762249	-1.393559E-6
571.000000	6.519269	-1.596524E-6
574.000000	6.477478	-1.465947E-6
577.000000	5.920517	-1.994207E-6
580.000000	6.350602	-1.520195E-6
583.000000	5.924441	-1.504156E-6
586.000000	5.760335	-1.898496E-6
589.000000	6.126373	-1.391790E-6
592.000000	3.762399	-4.917341E-7
595.000000	4.255373	-6.649362E-7
598.000000	5.952013	-7.384789E-7
601.000000	4.635988	-7.861281E-7
604.000000	4.965665	-8.717744E-7
607.000000	4.925261	-9.269633E-7
610.000000	5.062296	-9.720355E-7
613.000000	5.149174	-1.684088E-6
616.000000	4.683774	-1.943198E-6
619.000000	5.011333	-1.193730E-6
622.000000	4.298504	-2.033986E-6
625.000000	3.499069	-1.988463E-6
628.000000	4.216682	-1.243416E-6
631.000000	3.591412	-1.279487E-6
634.000000	3.186426	-1.387349E-6
637.000000	2.724839	-1.521456E-6
640.000000	2.415738	-1.331263E-6
643.000000	2.086711	-1.093255E-6
646.000000	1.720430	-1.074810E-6
649.000000	0.856861	-5.192585E-7
652.000000	0.891664	-6.761414E-7
655.000000	1.028545	-7.171592E-7
658.000000	0.887536	-6.699003E-7
661.000000	0.691343	-6.254397E-7
664.000000	0.702576	-5.618897E-7
667.000000	0.549457	-4.957832E-7
670.000000	0.488948	-4.425279E-7
673.000000	0.418635	-3.959063E-7
676.000000	0.358929	-3.591231E-7
679.000000	0.331123	-3.293185E-7
682.000000	0.300385	-3.041074E-7
685.000000	0.266256	-2.855085E-7
688.000000	0.253216	-2.696966E-7
691.000000	0.236749	-2.549435E-7
694.000000	0.234551	-2.431520E-7
697.000000	0.229572	-2.325264E-7
700.000000	0.202913	-2.261683E-7
703.000000	0.196877	-2.229834E-7
706.000000	0.188225	-2.197479E-7
709.000000	0.190589	-2.150911E-7
712.000000	0.163922	-2.108645E-7
715.000000	0.186306	-2.081561E-7
718.000000	0.190923	-2.020945E-7
721.000000	0.151457	-1.986730E-7
724.000000	0.191289	-1.958236E-7
727.000000	0.166119	-1.917888E-7
730.000000	0.184083	-1.878782E-7
733.000000	0.184780	-1.837331E-7
736.000000	0.178224	-1.792514E-7
739.000000	0.210249	-1.766229E-7
742.000000	0.181009	-1.722512E-7
745.000000	0.218769	-1.696080E-7
748.000000	0.202696	-1.662793E-7
751.000000	0.208869	-1.649875E-7
754.000000	0.236080	-1.625438E-7
757.000000	0.205840	-1.616881E-7
760.000000	0.250159	-1.594290E-7
763.000000	0.226919	-1.580581E-7
766.000000	0.248057	-1.572113E-7
769.000000	0.273641	-1.557802E-7
772.000000	0.246833	-1.557182E-7
775.000000	0.288162	-1.549846E-7
778.000000	0.261290	-1.546061E-7
781.000000	0.276182	-1.549885E-7
784.000000	0.290072	-1.534928E-7
787.000000	0.267768	-1.542167E-7
790.000000	0.291927	-1.529900E-7
793.000000	0.258851	-1.520557E-7
796.000000	0.273839	-1.525547E-7
799.000000	0.273810	-1.530809E-7
802.000000	0.256256	-1.525627E-7
805.000000	0.273113	-1.509032E-7
808.000000	0.246861	-1.505144E-7
811.000000	0.272109	-1.508655E-7
814.000000	0.255975	-1.506739E-7
817.000000	0.256010	-1.506667E-7
820.000000	0.262294	-1.506653E-7
823.000000	0.234294	-1.500874E-7
826.000000	0.259759	-1.498201E-7
829.000000	0.227100	-1.491943E-7
832.000000	0.239873	-1.493177E-7
835.000000	0.219003	-1.480547E-7
838.000000	0.216327	-1.479166E-7
841.000000	0.230984	-1.480461E-7
844.000000	0.209805	-1.468573E-7
847.000000	0.223642	-1.467714E-7
850.000000	0.205885	-1.470032E-7
853.000000	0.221200	-1.475578E-7
856.000000	0.219482	-1.475587E-7
859.000000	0.217877	-1.475552E-7
862.000000	0.239364	-1.481446E-7
865.000000	0.238498	-1.478262E-7
868.000000	0.257510	-1.485339E-7
871.000000	0.262844	-1.480135E-7
874.000000	0.282256	-1.462879E-7
877.000000	0.295563	-1.455950E-7
880.000000	0.300205	-1.455101E-7
883.000000	0.322688	-1.465521E-7
886.000000	0.327409	-1.467000E-7
889.000000	0.341873	-1.470761E-7
892.000000	0.352053	-1.461287E-7
895.000000	0.365320	-1.458670E-7
898.000000	0.368670	-1.461526E-7
901.000000	0.379388	-1.461063E-7
904.000000	0.362803	-1.457289E-7
907.000000	0.367813	-1.447196E-7
910.000000	0.377197	-1.460430E-7
913.000000	0.358778	-1.457491E-7
916.000000	0.378667	-1.455490E-7
919.000000	0.362083	-1.443435E-7
922.000000	0.359161	-1.440272E-7
925.000000	0.379550	-1.447954E-7
928.000000	0.366820	-1.457285E-7
931.000000	0.397207	-1.457757E-7
934.000000	0.375200	-1.459139E-7
937.000000	0.384825	-1.456638E-7
940.000000	0.413740	-1.455489E-7
943.000000	0.404912	-1.449574E-7
946.000000	0.431322	-1.458190E-7
949.000000	0.403626	-1.438264E-7
952.000000	0.430289	-1.454641E-7
955.000000	0.458056	-1.464739E-7
958.000000	0.469102	-1.453983E-7
961.000000	0.493497	-1.467531E-7
964.000000	0.493109	-1.461922E-7
967.000000	0.519068	-1.463380E-7
970.000000	0.530027	-1.470881E-7
973.000000	0.553931	-1.471714E-7
976.000000	0.572868	-1.462439E-7
979.000000	0.625242	-1.474047E-7
982.000000	0.680226	-1.475419E-7
985.000000	0.695136	-1.474898E-7
988.000000	0.706217	-1.465259E-7
991.000000	0.710876	-1.444433E-7
994.000000	0.761653	-1.442477E-7
997.000000	0.791345	-1.450547E-7
1000.000000	0.792405	-1.459659E-7
1003.000000	0.801230	-1.465299E-7
1006.000000	0.825314	-1.467174E-7
1009.000000	0.852641	-1.456412E-7
1012.000000	0.833944	-1.453203E-7
1015.000000	0.821588	-1.455256E-7
1018.000000	0.815312	-1.446551E-7
1021.000000	0.795554	-1.445255E-7
1024.000000	0.779926	-1.466379E-7
1027.000000	0.701704	-1.442513E-7
1030.000000	0.647649	-1.434608E-7
1033.000000	0.625989	-1.448757E-7
1036.000000	0.565314	-1.456316E-7
1039.000000	0.499664	-1.459273E-7
1042.000000	0.558758	-1.461276E-7
1045.000000	0.667243	-1.456616E-7
1048.000000	0.678592	-1.445681E-7
1051.000000	0.662951	-1.443543E-7
1054.000000	0.578178	-1.433356E-7
1057.000000	0.522543	-1.460446E-7
1060.000000	0.462621	-1.463165E-7
1063.000000	0.383801	-1.474151E-7
1066.000000	0.291083	-1.456900E-7
1069.000000	0.137662	-1.469638E-7
1072.000000	0.067139	-1.466182E-7
1075.000000	0.225921	-1.464962E-7
1078.000000	0.321165	-1.453384E-7
1081.000000	0.396371	-1.460875E-7
1084.000000	0.427483	-1.471074E-7
1087.000000	0.470353	-1.469005E-7
1090.000000	0.486730	-1.481711E-7
1093.000000	0.508538	-1.482868E-7
1096.000000	0.511890	-1.472778E-7
1099.000000	0.477333	-1.478375E-7
