Voltage (V)	Current (A)	Current Density (A/m^2)	 Dividing Wavelength (nm) = 600  Light Power Density (W/m^2) = 1076.543839  Total Light Power Density (W/m^2) = 1076.543839	
-0.199845	-4.708363E-5	-5.885454
-0.193168	-4.720286E-5	-5.900358
-0.186451	-4.678755E-5	-5.848444
-0.179713	-4.689134E-5	-5.861417
-0.173004	-4.622939E-5	-5.778674
-0.166297	-4.616562E-5	-5.770703
-0.159587	-4.561033E-5	-5.701291
-0.152844	-4.590577E-5	-5.738221
-0.146137	-4.525876E-5	-5.657345
-0.139435	-4.499971E-5	-5.624964
-0.132753	-4.479543E-5	-5.599429
-0.125974	-4.438396E-5	-5.547995
-0.119302	-4.417183E-5	-5.521479
-0.112600	-4.349213E-5	-5.436516
-0.105890	-4.426990E-5	-5.533737
-0.099181	-4.341137E-5	-5.426421
-0.092443	-4.341469E-5	-5.426836
-0.085734	-4.325472E-5	-5.406840
-0.079029	-4.290390E-5	-5.362988
-0.072347	-4.270931E-5	-5.338664
-0.065580	-4.224523E-5	-5.280654
-0.058904	-4.227215E-5	-5.284019
-0.052195	-4.163875E-5	-5.204844
-0.045483	-4.177517E-5	-5.221896
-0.038778	-4.166268E-5	-5.207835
-0.032038	-4.126857E-5	-5.158571
-0.025334	-4.148223E-5	-5.185279
-0.018621	-4.092092E-5	-5.115115
-0.011950	-4.084727E-5	-5.105909
-0.005172	-4.083730E-5	-5.104663
0.001464	-4.066369E-5	-5.082961
0.008169	-4.029962E-5	-5.037452
0.014880	-4.008817E-5	-5.011021
0.021621	-3.987684E-5	-4.984605
0.028334	-3.924179E-5	-4.905224
0.035007	-3.933644E-5	-4.917055
0.041710	-3.920688E-5	-4.900860
0.048418	-3.855585E-5	-4.819481
0.055169	-3.864614E-5	-4.830768
0.061878	-3.825116E-5	-4.781395
0.068584	-3.789330E-5	-4.736663
0.075256	-3.765001E-5	-4.706251
0.082029	-3.744206E-5	-4.680258
0.088710	-3.711863E-5	-4.639829
0.095418	-3.700310E-5	-4.625387
0.102126	-3.680110E-5	-4.600138
0.108828	-3.660659E-5	-4.575824
0.115571	-3.634872E-5	-4.543590
0.122283	-3.560073E-5	-4.450091
0.128957	-3.618369E-5	-4.522961
0.135665	-3.567494E-5	-4.459368
0.142408	-3.516216E-5	-4.395270
0.149118	-3.491938E-5	-4.364923
0.155831	-3.492881E-5	-4.366101
0.162539	-3.428431E-5	-4.285539
0.169274	-3.404262E-5	-4.255327
0.175977	-3.360419E-5	-4.200524
0.182692	-3.340346E-5	-4.175432
0.189369	-3.272761E-5	-4.090951
0.196077	-3.265489E-5	-4.081861
0.202821	-3.253070E-5	-4.066337
0.209529	-3.163740E-5	-3.954675
0.216239	-3.161985E-5	-3.952481
0.222947	-3.111898E-5	-3.889873
0.229684	-3.045720E-5	-3.807150
0.236394	-3.045267E-5	-3.806584
0.243070	-2.976476E-5	-3.720595
0.249781	-2.943801E-5	-3.679751
0.256522	-2.927806E-5	-3.659758
0.263223	-2.901056E-5	-3.626320
0.269931	-2.810660E-5	-3.513325
0.276644	-2.819276E-5	-3.524095
0.283316	-2.695379E-5	-3.369224
0.290093	-2.659694E-5	-3.324618
0.296767	-2.629776E-5	-3.287220
0.303474	-2.566138E-5	-3.207673
0.310182	-2.510181E-5	-3.137726
0.316926	-2.371129E-5	-2.963911
0.323631	-2.306645E-5	-2.883306
0.330340	-2.287407E-5	-2.859259
0.337025	-2.241112E-5	-2.801390
0.343730	-2.181597E-5	-2.726996
0.350470	-2.100432E-5	-2.625540
0.357172	-2.009231E-5	-2.511539
0.363886	-1.875342E-5	-2.344178
0.370596	-1.820192E-5	-2.275240
0.377338	-1.737857E-5	-2.172321
0.384044	-1.625134E-5	-2.031418
0.390712	-1.490456E-5	-1.863070
0.397421	-1.371027E-5	-1.713784
0.404173	-1.191411E-5	-1.489264
0.410875	-1.099278E-5	-1.374097
0.417579	-9.385032E-6	-1.173129
0.424291	-8.010365E-6	-1.001296
0.431008	-5.598380E-6	-0.699798
0.437740	-3.649102E-6	-0.456138
0.444444	-1.324871E-6	-0.165609
0.451113	1.107211E-6	0.138401
0.457815	3.761678E-6	0.470210
0.464545	6.858241E-6	0.857280
0.471264	1.024689E-5	1.280861
0.477977	1.389499E-5	1.736874
0.484680	1.740580E-5	2.175725
0.491421	2.218682E-5	2.773353
0.498134	2.728690E-5	3.410863
0.504805	3.279373E-5	4.099216
0.511513	3.899961E-5	4.874951
0.518213	4.589960E-5	5.737450
0.524961	5.377992E-5	6.722490
0.531658	6.295716E-5	7.869645
0.538369	7.317271E-5	9.146589
0.545033	8.440356E-5	10.550445
0.551802	9.820610E-5	12.275762
0.558495	0.000112	14.033975
0.565213	0.000130	16.231963
0.571919	0.000150	18.696725
0.578628	0.000171	21.414938
0.585367	0.000197	24.616975
0.592081	0.000226	28.223600
0.598760	0.000259	32.352875
0.605464	0.000297	37.108013
0.612207	0.000340	42.511800
0.618914	0.000389	48.572550
0.625624	0.000444	55.504100
0.632330	0.000507	63.319012
0.639065	0.000576	72.034525
0.645774	0.000654	81.803363
0.652452	0.000741	92.608663
0.659153	0.000837	104.622150
0.665852	0.000942	117.793800
0.672630	0.001059	132.388125
0.679340	0.001184	148.057125
0.686050	0.001321	165.083375
0.692729	0.001466	183.307250
0.699503	0.001625	203.108375
0.706209	0.001791	223.924875
0.712894	0.001967	245.917750
0.719595	0.002154	269.231250
0.726311	0.002349	293.639500
0.733049	0.002555	319.368750
0.739761	0.002768	346.035875
0.746473	0.002990	373.782000
0.753141	0.003219	402.316625
0.759911	0.003458	432.204500
0.766586	0.003701	462.587000
0.773292	0.003952	493.980750
0.780002	0.004209	526.135000
0.786748	0.004474	559.295375
0.793446	0.004744	592.982500
0.800153	0.005019	627.332750
