Voltage (V)	Current (A)	Current Density (A/m^2)	 Dividing Wavelength (nm) = 760  Light Power Density (W/m^2) = 1076.543839  Total Light Power Density (W/m^2) = 1076.543839	
-0.199868	-1.960059E-5	-2.450074
-0.193179	-1.944328E-5	-2.430410
-0.186471	-1.938030E-5	-2.422538
-0.179739	-1.881216E-5	-2.351520
-0.173023	-1.885079E-5	-2.356349
-0.166312	-1.853325E-5	-2.316656
-0.159603	-1.835573E-5	-2.294466
-0.152869	-1.817422E-5	-2.271778
-0.146158	-1.791504E-5	-2.239380
-0.139454	-1.740126E-5	-2.175158
-0.132771	-1.720323E-5	-2.150404
-0.125998	-1.713677E-5	-2.142096
-0.119319	-1.687952E-5	-2.109940
-0.112619	-1.652994E-5	-2.066242
-0.105913	-1.681308E-5	-2.101635
-0.099197	-1.631614E-5	-2.039518
-0.092458	-1.619203E-5	-2.024004
-0.085747	-1.644392E-5	-2.055490
-0.079045	-1.589079E-5	-1.986349
-0.072368	-1.541223E-5	-1.926529
-0.065584	-1.545960E-5	-1.932450
-0.058913	-1.543317E-5	-1.929146
-0.052215	-1.530559E-5	-1.913199
-0.045498	-1.505469E-5	-1.881836
-0.038790	-1.492645E-5	-1.865806
-0.032056	-1.459869E-5	-1.824836
-0.025343	-1.438842E-5	-1.798553
-0.018639	-1.451751E-5	-1.814689
-0.011960	-1.438865E-5	-1.798581
-0.005183	-1.396690E-5	-1.745863
0.001454	-1.348722E-5	-1.685903
0.008164	-1.359884E-5	-1.699855
0.014866	-1.326162E-5	-1.657703
0.021610	-1.334324E-5	-1.667905
0.028318	-1.300977E-5	-1.626221
0.034997	-1.278642E-5	-1.598302
0.041702	-1.282777E-5	-1.603471
0.048404	-1.263186E-5	-1.578983
0.055152	-1.244284E-5	-1.555355
0.061861	-1.199349E-5	-1.499186
0.068571	-1.195294E-5	-1.494117
0.075233	-1.178328E-5	-1.472910
0.082014	-1.157650E-5	-1.447063
0.088697	-1.159216E-5	-1.449020
0.095411	-1.146086E-5	-1.432608
0.102098	-1.103693E-5	-1.379616
0.108805	-1.077480E-5	-1.346850
0.115561	-1.069778E-5	-1.337222
0.122271	-1.058587E-5	-1.323234
0.128943	-1.008810E-5	-1.261012
0.135652	-1.002199E-5	-1.252749
0.142395	-9.615344E-6	-1.201918
0.149111	-9.576339E-6	-1.197042
0.155818	-9.233026E-6	-1.154128
0.162511	-9.019998E-6	-1.127500
0.169264	-8.624107E-6	-1.078013
0.175963	-8.594152E-6	-1.074269
0.182689	-8.333443E-6	-1.041680
0.189365	-7.783454E-6	-0.972932
0.196066	-7.618070E-6	-0.952259
0.202808	-7.367371E-6	-0.920921
0.209509	-7.079645E-6	-0.884956
0.216227	-6.823594E-6	-0.852949
0.222931	-6.416028E-6	-0.802003
0.229670	-6.130890E-6	-0.766361
0.236373	-5.535599E-6	-0.691950
0.243055	-5.708212E-6	-0.713527
0.249761	-5.294098E-6	-0.661762
0.256507	-4.751034E-6	-0.593879
0.263212	-4.437029E-6	-0.554629
0.269921	-4.032569E-6	-0.504071
0.276629	-3.698319E-6	-0.462290
0.283300	-3.281597E-6	-0.410200
0.290080	-2.645396E-6	-0.330675
0.296754	-2.327855E-6	-0.290982
0.303462	-1.610009E-6	-0.201251
0.310175	-1.112231E-6	-0.139029
0.317525	-6.886938E-7	-0.086087
0.323570	-3.502928E-7	-0.043787
0.330321	5.099553E-7	0.063744
0.336862	8.895003E-7	0.111188
0.343691	1.685776E-6	0.210722
0.350424	2.215006E-6	0.276876
0.357149	2.861428E-6	0.357679
0.363848	4.058046E-6	0.507256
0.370560	4.789209E-6	0.598651
0.377297	5.465411E-6	0.683176
0.384014	6.279940E-6	0.784993
0.390675	7.378120E-6	0.922265
0.397375	8.463880E-6	1.057985
0.404122	9.932603E-6	1.241575
0.410831	1.108162E-5	1.385203
0.417551	1.293481E-5	1.616851
0.424253	1.414048E-5	1.767560
0.430969	1.601436E-5	2.001795
0.437704	1.763087E-5	2.203859
0.444420	1.954712E-5	2.443390
0.451085	2.185856E-5	2.732320
0.457801	2.414610E-5	3.018263
0.464544	2.709022E-5	3.386278
0.471248	3.019980E-5	3.774975
0.477964	3.381940E-5	4.227425
0.484661	3.706352E-5	4.632940
0.491404	4.142013E-5	5.177516
0.498115	4.596538E-5	5.745672
0.504794	5.128006E-5	6.410008
0.511496	5.690121E-5	7.112651
0.518194	6.347861E-5	7.934826
0.524946	7.128734E-5	8.910918
0.531641	7.949401E-5	9.936751
0.538348	8.918953E-5	11.148691
0.545021	0.000100	12.519937
0.551804	0.000112	14.044888
0.558487	0.000127	15.830550
0.565189	0.000143	17.844638
0.571899	0.000161	20.155738
0.578604	0.000182	22.800713
0.585351	0.000207	25.863200
0.592069	0.000235	29.341950
0.598742	0.000266	33.261175
0.605444	0.000302	37.772813
0.612187	0.000344	42.948875
0.618895	0.000391	48.815825
0.625602	0.000444	55.450775
0.632312	0.000504	62.945050
0.639044	0.000571	71.433413
0.645756	0.000647	80.911013
0.652438	0.000731	91.407638
0.659137	0.000825	103.132413
0.665847	0.000927	115.907013
0.672532	0.001040	130.024000
0.679320	0.001164	145.513000
0.686037	0.001298	162.202125
0.692711	0.001441	180.100875
0.699487	0.001596	199.515875
0.706198	0.001760	220.010625
0.712880	0.001934	241.792500
0.719579	0.002118	264.748125
0.726294	0.002312	288.971875
0.733034	0.002515	314.363000
0.739744	0.002727	340.826125
0.746453	0.002946	368.263375
0.753135	0.003173	396.622375
0.759907	0.003411	426.338500
0.766572	0.003652	456.484000
0.773284	0.003902	487.687625
0.779988	0.004158	519.718375
0.786734	0.004422	552.741000
0.793437	0.004690	586.297500
0.800146	0.004965	620.575625
