Voltage (V)	Current (A)	Current Density (A/m^2)	 Dividing Wavelength (nm) = 780  Light Power Density (W/m^2) = 1076.543839  Total Light Power Density (W/m^2) = 1076.543839	
-0.199912	-0.000251	-31.334525
-0.193236	-0.000252	-31.454138
-0.186524	-0.000244	-30.460163
-0.179791	-0.000246	-30.788000
-0.173084	-0.000249	-31.135225
-0.166375	-0.000246	-30.694513
-0.159670	-0.000245	-30.651438
-0.152921	-0.000247	-30.846138
-0.146220	-0.000243	-30.364688
-0.139511	-0.000245	-30.675525
-0.132838	-0.000247	-30.834500
-0.126055	-0.000246	-30.716313
-0.119386	-0.000240	-30.059225
-0.112684	-0.000242	-30.230013
-0.105969	-0.000246	-30.716000
-0.099265	-0.000243	-30.391538
-0.092519	-0.000242	-30.280800
-0.085819	-0.000241	-30.171263
-0.079113	-0.000242	-30.227900
-0.072431	-0.000245	-30.641863
-0.065659	-0.000243	-30.360913
-0.058987	-0.000241	-30.081112
-0.052280	-0.000239	-29.880313
-0.045575	-0.000243	-30.361800
-0.038868	-0.000240	-29.964862
-0.032125	-0.000241	-30.126725
-0.025416	-0.000236	-29.529875
-0.018704	-0.000237	-29.652225
-0.012036	-0.000239	-29.845150
-0.005250	-0.000240	-29.952888
0.001388	-0.000234	-29.228150
0.008102	-0.000236	-29.521875
0.014806	-0.000236	-29.548813
0.021548	-0.000235	-29.387338
0.028268	-0.000236	-29.438200
0.034937	-0.000236	-29.453900
0.041637	-0.000231	-28.875625
0.048348	-0.000227	-28.397650
0.055093	-0.000231	-28.883987
0.061802	-0.000234	-29.216875
0.068505	-0.000229	-28.630313
0.075176	-0.000230	-28.746825
0.081950	-0.000231	-28.893688
0.088629	-0.000226	-28.290088
0.095338	-0.000230	-28.751313
0.102045	-0.000233	-29.140800
0.108748	-0.000226	-28.307488
0.115491	-0.000227	-28.419750
0.122207	-0.000231	-28.910000
0.128878	-0.000227	-28.313138
0.135587	-0.000224	-28.037862
0.142325	-0.000225	-28.157325
0.149046	-0.000226	-28.226175
0.155750	-0.000224	-27.939475
0.162462	-0.000223	-27.895838
0.169195	-0.000225	-28.090588
0.175901	-0.000225	-28.122475
0.182608	-0.000219	-27.390187
0.189292	-0.000220	-27.539613
0.195996	-0.000221	-27.650575
0.202740	-0.000222	-27.706400
0.209447	-0.000221	-27.611725
0.216157	-0.000213	-26.592050
0.222867	-0.000219	-27.342662
0.229604	-0.000221	-27.579075
0.236317	-0.000217	-27.111900
0.242995	-0.000216	-26.981550
0.249700	-0.000213	-26.612475
0.256435	-0.000217	-27.133025
0.263143	-0.000212	-26.538300
0.269856	-0.000210	-26.213500
0.276564	-0.000209	-26.118662
0.283242	-0.000212	-26.480412
0.290019	-0.000210	-26.293412
0.296690	-0.000208	-26.001688
0.303397	-0.000203	-25.340613
0.310106	-0.000206	-25.750313
0.316843	-0.000208	-25.953100
0.323553	-0.000203	-25.421012
0.330262	-0.000202	-25.222200
0.336944	-0.000202	-25.204675
0.343646	-0.000203	-25.326350
0.350389	-0.000199	-24.815013
0.357093	-0.000196	-24.540163
0.363800	-0.000195	-24.363250
0.370518	-0.000196	-24.465262
0.377250	-0.000190	-23.726800
0.383958	-0.000189	-23.658800
0.390636	-0.000192	-23.974375
0.397339	-0.000190	-23.779538
0.404083	-0.000184	-22.941288
0.410789	-0.000183	-22.832025
0.417492	-0.000181	-22.574687
0.424199	-0.000185	-23.070612
0.430917	-0.000177	-22.171075
0.437661	-0.000167	-20.860488
0.444364	-0.000171	-21.420175
0.451043	-0.000166	-20.804563
0.457751	-0.000163	-20.405000
0.464499	-0.000159	-19.815812
0.471211	-0.000157	-19.574438
0.477916	-0.000151	-18.937363
0.484619	-0.000145	-18.182550
0.491362	-0.000139	-17.353687
0.498075	-0.000134	-16.745450
0.504747	-0.000123	-15.417888
0.511453	-0.000121	-15.126238
0.518152	-0.000112	-13.943363
0.524909	-0.000103	-12.828475
0.531640	-9.078925E-5	-11.348656
0.538339	-7.854023E-5	-9.817529
0.545010	-6.544576E-5	-8.180720
0.551769	-4.992087E-5	-6.240109
0.558449	-3.158316E-5	-3.947895
0.565124	-1.406840E-5	-1.758550
0.571853	9.651684E-6	1.206461
0.578537	3.202640E-5	4.003300
0.585268	6.023787E-5	7.529734
0.591976	9.573740E-5	11.967175
0.598685	0.000129	16.102912
0.605384	0.000171	21.406388
0.612125	0.000217	27.128225
0.618829	0.000269	33.674813
0.625542	0.000329	41.167925
0.632242	0.000396	49.520688
0.638978	0.000471	58.884250
0.645692	0.000552	68.992250
0.652363	0.000645	80.654938
0.659070	0.000746	93.233588
0.665772	0.000857	107.099925
0.672503	0.000976	121.958813
0.679245	0.001107	138.422000
0.685948	0.001248	156.005000
0.692631	0.001400	174.981125
0.699398	0.001561	195.168625
0.706104	0.001733	216.581250
0.712792	0.001911	238.887500
0.719498	0.002102	262.691375
0.726201	0.002301	287.583750
0.732939	0.002510	313.727000
0.739653	0.002726	340.735250
0.746365	0.002951	368.893250
0.753039	0.003181	397.684625
0.759823	0.003423	427.922500
0.766488	0.003669	458.674500
0.773207	0.003924	490.464625
0.779906	0.004182	522.775750
0.786650	0.004449	556.106750
0.793349	0.004720	589.996750
0.800055	0.004996	624.557000
