Voltage (V)	Current (A)	Current Density (A/m^2)	 Dividing Wavelength (nm) = 480  Light Power Density (W/m^2) = 1076.543839  Total Light Power Density (W/m^2) = 1076.543839	
-0.199884	-0.001499	-187.314875
-0.193200	-0.001500	-187.497875
-0.186488	-0.001504	-188.060250
-0.179758	-0.001510	-188.700125
-0.173046	-0.001499	-187.410500
-0.166340	-0.001504	-187.991500
-0.159634	-0.001491	-186.432875
-0.152889	-0.001497	-187.118625
-0.146184	-0.001483	-185.416125
-0.139480	-0.001492	-186.447625
-0.132801	-0.001490	-186.207750
-0.126023	-0.001493	-186.565125
-0.119351	-0.001489	-186.093500
-0.112647	-0.001483	-185.345625
-0.105935	-0.001483	-185.313750
-0.099232	-0.001471	-183.901250
-0.092486	-0.001466	-183.204000
-0.085784	-0.001469	-183.679125
-0.079075	-0.001469	-183.594500
-0.072400	-0.001462	-182.779750
-0.065626	-0.001468	-183.528750
-0.058949	-0.001468	-183.484500
-0.052242	-0.001463	-182.827625
-0.045537	-0.001463	-182.894000
-0.038825	-0.001459	-182.390000
-0.032084	-0.001471	-183.863375
-0.025382	-0.001465	-183.103250
-0.018672	-0.001463	-182.921250
-0.011999	-0.001466	-183.267375
-0.005221	-0.001460	-182.451750
0.001421	-0.001450	-181.198875
0.008128	-0.001451	-181.433500
0.014833	-0.001452	-181.558875
0.021581	-0.001441	-180.137875
0.028295	-0.001433	-179.149625
0.034968	-0.001442	-180.234750
0.041669	-0.001438	-179.786500
0.048374	-0.001456	-181.968750
0.055128	-0.001441	-180.184500
0.061834	-0.001439	-179.910000
0.068540	-0.001436	-179.463250
0.075214	-0.001428	-178.511250
0.081986	-0.001425	-178.115375
0.088665	-0.001419	-177.434125
0.095372	-0.001425	-178.078750
0.102080	-0.001425	-178.137375
0.108787	-0.001416	-177.059125
0.115526	-0.001427	-178.412000
0.122242	-0.001408	-175.939000
0.128912	-0.001425	-178.172125
0.135624	-0.001409	-176.153875
0.142368	-0.001400	-175.049875
0.149082	-0.001406	-175.714875
0.155790	-0.001392	-173.952500
0.162500	-0.001388	-173.528875
0.169236	-0.001398	-174.788500
0.175941	-0.001381	-172.677375
0.182655	-0.001386	-173.202000
0.189330	-0.001367	-170.825500
0.196035	-0.001397	-174.623875
0.202776	-0.001375	-171.845625
0.209485	-0.001371	-171.430000
0.216200	-0.001379	-172.426875
0.222903	-0.001364	-170.480125
0.229647	-0.001371	-171.350500
0.236356	-0.001362	-170.255500
0.243034	-0.001360	-170.031125
0.249738	-0.001366	-170.756000
0.256476	-0.001360	-170.031125
0.263178	-0.001360	-169.948375
0.269888	-0.001352	-169.033375
0.276598	-0.001342	-167.755500
0.283275	-0.001365	-170.588375
0.290048	-0.001339	-167.397125
0.296721	-0.001344	-167.968750
0.303426	-0.001332	-166.492500
0.310137	-0.001321	-165.080625
0.316877	-0.001330	-166.192000
0.323583	-0.001315	-164.339000
0.330299	-0.001318	-164.794500
0.336978	-0.001304	-163.027000
0.343677	-0.001301	-162.583500
0.350426	-0.001299	-162.358625
0.357129	-0.001310	-163.743250
0.363835	-0.001295	-161.936250
0.370549	-0.001284	-160.495375
0.377290	-0.001295	-161.819250
0.383999	-0.001286	-160.729750
0.390666	-0.001282	-160.308625
0.397375	-0.001266	-158.264625
0.404124	-0.001272	-158.989750
0.410824	-0.001259	-157.324000
0.417534	-0.001244	-155.523125
0.424236	-0.001238	-154.711500
0.430955	-0.001230	-153.749375
0.437698	-0.001233	-154.102250
0.444403	-0.001218	-152.264375
0.451072	-0.001213	-151.641625
0.457785	-0.001210	-151.273500
0.464533	-0.001186	-148.193375
0.471237	-0.001187	-148.387875
0.477950	-0.001181	-147.569250
0.484648	-0.001171	-146.319500
0.491395	-0.001148	-143.524750
0.498111	-0.001138	-142.219750
0.504780	-0.001136	-141.952000
0.511489	-0.001112	-139.009250
0.518193	-0.001090	-136.202125
0.524942	-0.001073	-134.171000
0.531644	-0.001048	-131.024500
0.538350	-0.001022	-127.741625
0.545041	-0.001004	-125.523750
0.551811	-0.000975	-121.893450
0.558492	-0.000937	-117.117513
0.565198	-0.000906	-113.288650
0.571902	-0.000881	-110.181600
0.578613	-0.000819	-102.416513
0.585346	-0.000783	-97.884937
0.592054	-0.000744	-92.949375
0.598735	-0.000674	-84.303538
0.605439	-0.000619	-77.346450
0.612176	-0.000539	-67.422663
0.618885	-0.000466	-58.211738
0.625591	-0.000373	-46.563825
0.632295	-0.000274	-34.269300
0.639030	-0.000170	-21.261475
0.645744	-6.241248E-5	-7.801560
0.652386	5.833796E-5	7.292245
0.659103	0.000195	24.386825
0.665811	0.000333	41.682988
0.672538	0.000489	61.149738
0.679246	0.000647	80.838650
0.685944	0.000813	101.577350
0.692620	0.000994	124.221038
0.699420	0.001185	148.063500
0.706129	0.001386	173.196875
0.712808	0.001587	198.345000
0.719517	0.001801	225.065125
0.726223	0.002027	253.338000
0.732964	0.002260	282.458875
0.739668	0.002499	312.410625
0.746381	0.002740	342.518875
0.753055	0.002992	373.987625
0.759826	0.003253	406.620750
0.766499	0.003515	439.385375
0.773205	0.003783	472.821875
0.779916	0.004059	507.351500
0.786658	0.004340	542.519875
0.793366	0.004625	578.141000
0.800068	0.004913	614.159375
