Voltage (V)	Current (A)	Current Density (A/m^2)	 Dividing Wavelength (nm) = 530  Light Power Density (W/m^2) = 1076.543839  Total Light Power Density (W/m^2) = 1076.543839	
-0.199907	-0.001915	-239.432875
-0.193225	-0.001921	-240.062750
-0.186514	-0.001929	-241.102875
-0.179777	-0.001919	-239.854125
-0.173066	-0.001932	-241.456250
-0.166355	-0.001930	-241.250375
-0.159652	-0.001912	-239.054000
-0.152913	-0.001923	-240.365250
-0.146204	-0.001912	-238.998500
-0.139498	-0.001910	-238.704875
-0.132819	-0.001904	-238.058125
-0.126042	-0.001899	-237.372000
-0.119367	-0.001905	-238.115750
-0.112666	-0.001893	-236.651375
-0.105960	-0.001893	-236.680875
-0.099248	-0.001922	-240.311000
-0.092508	-0.001908	-238.544250
-0.085805	-0.001898	-237.222250
-0.079095	-0.001899	-237.348750
-0.072416	-0.001897	-237.123000
-0.065647	-0.001911	-238.827875
-0.058971	-0.001907	-238.365375
-0.052264	-0.001898	-237.237500
-0.045552	-0.001916	-239.531000
-0.038845	-0.001891	-236.320250
-0.032103	-0.001897	-237.137750
-0.025396	-0.001910	-238.704125
-0.018691	-0.001880	-234.942250
-0.012014	-0.001890	-236.256125
-0.005234	-0.001883	-235.331250
0.001403	-0.001880	-234.995875
0.008109	-0.001882	-235.223750
0.014819	-0.001886	-235.776375
0.021559	-0.001864	-232.947500
0.028277	-0.001873	-234.182500
0.034948	-0.001866	-233.205000
0.041649	-0.001875	-234.328625
0.048358	-0.001859	-232.331125
0.055111	-0.001849	-231.064125
0.061819	-0.001856	-231.974250
0.068524	-0.001859	-232.369875
0.075196	-0.001836	-229.469375
0.081968	-0.001852	-231.539625
0.088651	-0.001855	-231.914750
0.095360	-0.001844	-230.461125
0.102062	-0.001825	-228.101000
0.108771	-0.001845	-230.669875
0.115511	-0.001841	-230.162125
0.122223	-0.001837	-229.596000
0.128898	-0.001831	-228.906125
0.135600	-0.001830	-228.699625
0.142346	-0.001814	-226.809875
0.149061	-0.001822	-227.700000
0.155771	-0.001822	-227.750250
0.162479	-0.001805	-225.634250
0.169215	-0.001810	-226.228500
0.175922	-0.001808	-226.022625
0.182635	-0.001801	-225.093250
0.189313	-0.001798	-224.799750
0.196022	-0.001783	-222.877875
0.202764	-0.001788	-223.509875
0.209468	-0.001798	-224.798500
0.216178	-0.001785	-223.118750
0.222888	-0.001776	-222.019750
0.229628	-0.001758	-219.768000
0.236336	-0.001763	-220.390500
0.243015	-0.001774	-221.780125
0.249721	-0.001773	-221.658125
0.256460	-0.001744	-217.991625
0.263165	-0.001732	-216.547750
0.269876	-0.001740	-217.514500
0.276590	-0.001744	-218.011625
0.283261	-0.001712	-213.962875
0.290038	-0.001717	-214.586375
0.296708	-0.001710	-213.743875
0.303413	-0.001684	-210.454250
0.310132	-0.001695	-211.823000
0.316871	-0.001705	-213.138750
0.323575	-0.001674	-209.269625
0.330288	-0.001664	-208.016250
0.336968	-0.001657	-207.122000
0.343673	-0.001657	-207.125500
0.350413	-0.001647	-205.912500
0.357119	-0.001630	-203.764500
0.363826	-0.001607	-200.893000
0.370542	-0.001603	-200.386625
0.377276	-0.001594	-199.309000
0.383991	-0.001573	-196.580750
0.390658	-0.001570	-196.283125
0.397366	-0.001549	-193.637250
0.404113	-0.001542	-192.689500
0.410821	-0.001526	-190.752500
0.417530	-0.001499	-187.377875
0.424234	-0.001492	-186.545000
0.430950	-0.001471	-183.825250
0.437694	-0.001445	-180.658375
0.444395	-0.001420	-177.455000
0.451072	-0.001415	-176.837625
0.457779	-0.001385	-173.173500
0.464528	-0.001348	-168.551125
0.471235	-0.001332	-166.492750
0.477942	-0.001322	-165.209000
0.484647	-0.001269	-158.636250
0.491388	-0.001254	-156.714125
0.498102	-0.001214	-151.775625
0.504777	-0.001184	-148.020125
0.511478	-0.001150	-143.790875
0.518184	-0.001109	-138.611875
0.524937	-0.001070	-133.723250
0.531638	-0.001044	-130.531500
0.538350	-0.000989	-123.671925
0.545022	-0.000949	-118.639800
0.551792	-0.000904	-112.996363
0.558471	-0.000838	-104.804750
0.565183	-0.000795	-99.417013
0.571887	-0.000742	-92.707913
0.578596	-0.000685	-85.620888
0.585329	-0.000620	-77.523663
0.592042	-0.000555	-69.402088
0.598718	-0.000493	-61.608013
0.605421	-0.000420	-52.560975
0.612164	-0.000345	-43.066288
0.618870	-0.000274	-34.291812
0.625578	-0.000190	-23.790450
0.632281	-0.000105	-13.084150
0.639011	-1.779767E-5	-2.224709
0.645695	6.457011E-5	8.071264
0.652386	0.000165	20.644500
0.659093	0.000260	32.464100
0.665802	0.000360	45.062050
0.672535	0.000465	58.131013
0.679240	0.000568	70.983000
0.685948	0.000678	84.800750
0.692621	0.000793	99.171763
0.699391	0.000915	114.369462
0.706068	0.001035	129.359750
0.712813	0.001162	145.212000
0.719521	0.001289	161.150500
0.726230	0.001421	177.621250
0.732971	0.001557	194.572250
0.739684	0.001695	211.896750
0.746396	0.001837	229.614750
0.753073	0.001981	247.656625
0.759842	0.002131	266.377000
0.766516	0.002282	285.213625
0.773229	0.002437	304.572000
0.779934	0.002595	324.352500
0.786677	0.002756	344.499375
0.793385	0.002920	365.021875
0.800091	0.003087	385.902875
