Wavelength (nm)	EQE (%)	Current (A)	Dark Current (A) -> 	-414.516740000E-12	
400.000000	23.343964	-5.150242E-7
401.000000	25.502402	-7.566338E-7
402.000000	25.305446	-1.120244E-6
403.000000	25.130282	-1.691972E-6
404.000000	25.004910	-2.259902E-6
405.000000	25.098990	-2.994640E-6
406.000000	24.962960	-4.140650E-6
407.000000	24.605283	-4.447153E-6
408.000000	24.137302	-4.685659E-6
409.000000	24.329462	-5.320421E-6
410.000000	24.120591	-5.313088E-6
411.000000	24.370580	-7.042225E-6
412.000000	24.212143	-8.141111E-6
413.000000	24.297123	-1.068185E-5
414.000000	24.238092	-1.245602E-5
415.000000	23.828709	-1.230148E-5
416.000000	23.463901	-1.170324E-5
417.000000	23.698658	-1.043662E-5
418.000000	22.806104	-6.945948E-6
419.000000	22.799480	-5.010426E-6
420.000000	23.200209	-5.162673E-6
421.000000	23.305462	-5.657694E-6
422.000000	22.960252	-5.075388E-6
423.000000	23.223407	-5.305487E-6
424.000000	23.180685	-5.934765E-6
425.000000	23.414730	-6.386555E-6
426.000000	23.342515	-6.824046E-6
427.000000	23.369138	-7.164133E-6
428.000000	23.458517	-8.000678E-6
429.000000	23.884696	-9.022161E-6
430.000000	24.107230	-9.862698E-6
431.000000	24.080019	-1.002305E-5
432.000000	24.007134	-9.973795E-6
433.000000	24.344509	-1.029923E-5
434.000000	24.665434	-1.154002E-5
435.000000	24.614335	-1.181427E-5
436.000000	24.601496	-1.189209E-5
437.000000	25.027336	-1.313474E-5
438.000000	25.345182	-1.382777E-5
439.000000	25.506780	-1.370118E-5
440.000000	25.527967	-1.351118E-5
441.000000	26.096048	-1.521861E-5
442.000000	25.849617	-1.486518E-5
443.000000	26.438184	-1.455334E-5
444.000000	26.492670	-1.445157E-5
445.000000	26.559212	-1.443647E-5
446.000000	26.881088	-1.412880E-5
447.000000	27.175129	-1.600309E-5
448.000000	27.905209	-1.857453E-5
449.000000	27.818784	-1.732562E-5
450.000000	27.453771	-1.584182E-5
451.000000	28.190205	-1.747507E-5
452.000000	28.076220	-1.847808E-5
453.000000	28.345246	-1.762611E-5
454.000000	27.909336	-1.529603E-5
455.000000	28.754599	-1.619056E-5
456.000000	29.096741	-1.929174E-5
457.000000	28.368578	-2.143590E-5
458.000000	29.451001	-2.217044E-5
459.000000	29.884994	-2.132227E-5
460.000000	30.060962	-1.984059E-5
461.000000	30.113301	-1.883596E-5
462.000000	30.277024	-1.844556E-5
463.000000	30.747309	-1.874882E-5
464.000000	31.000462	-1.864612E-5
465.000000	31.388426	-1.932650E-5
466.000000	31.704043	-1.820869E-5
467.000000	31.451378	-1.482411E-5
468.000000	31.521378	-1.436520E-5
469.000000	32.180371	-1.880302E-5
470.000000	32.126221	-2.014772E-5
471.000000	32.475904	-1.574887E-5
472.000000	32.089285	-1.434801E-5
473.000000	33.348185	-2.015992E-5
474.000000	33.436408	-2.126655E-5
475.000000	32.879950	-1.633190E-5
476.000000	33.573871	-1.539690E-5
477.000000	34.434257	-1.860662E-5
478.000000	34.305868	-1.771038E-5
479.000000	34.444639	-1.720314E-5
480.000000	34.904114	-2.058344E-5
481.000000	35.221809	-2.073431E-5
482.000000	35.140840	-1.525776E-5
483.000000	34.695119	-1.494122E-5
484.000000	36.069136	-1.977111E-5
485.000000	35.885437	-1.690598E-5
486.000000	35.702472	-1.475629E-5
487.000000	35.989965	-1.758053E-5
488.000000	36.989200	-1.835751E-5
489.000000	36.135981	-1.538435E-5
490.000000	37.213452	-1.723872E-5
491.000000	36.520661	-1.890641E-5
492.000000	37.426049	-2.128156E-5
493.000000	37.797827	-2.305031E-5
494.000000	37.684211	-2.119979E-5
495.000000	37.008937	-1.986260E-5
496.000000	38.285770	-2.345120E-5
497.000000	39.543914	-2.591296E-5
498.000000	38.888262	-2.360359E-5
499.000000	38.707007	-2.263326E-5
500.000000	38.661030	-2.517644E-5
501.000000	38.318092	-3.057121E-5
502.000000	39.801669	-2.983326E-5
503.000000	39.276318	-2.745432E-5
504.000000	39.956883	-3.209895E-5
505.000000	40.930075	-3.731843E-5
506.000000	40.736940	-3.459185E-5
507.000000	40.716893	-2.830190E-5
508.000000	40.553826	-2.790460E-5
509.000000	40.906316	-2.829566E-5
510.000000	40.534320	-2.455967E-5
511.000000	40.785646	-2.170230E-5
512.000000	40.981151	-2.457861E-5
513.000000	41.421590	-2.821061E-5
514.000000	41.774144	-3.373130E-5
515.000000	42.398063	-4.034409E-5
516.000000	42.044472	-5.059461E-5
517.000000	43.333532	-6.231246E-5
518.000000	43.232871	-5.456106E-5
519.000000	42.496295	-4.393242E-5
520.000000	43.041002	-4.171220E-5
521.000000	42.256130	-3.205772E-5
522.000000	41.907185	-2.466714E-5
523.000000	41.568577	-2.282133E-5
524.000000	42.451065	-2.995516E-5
525.000000	43.443181	-4.260874E-5
526.000000	43.549707	-4.778417E-5
527.000000	44.061129	-5.192721E-5
528.000000	44.388789	-5.935107E-5
529.000000	44.466562	-5.735499E-5
530.000000	44.125608	-4.316258E-5
531.000000	43.581492	-3.186276E-5
532.000000	43.427174	-2.582813E-5
533.000000	43.435003	-2.670412E-5
534.000000	44.373325	-2.937626E-5
535.000000	44.256320	-3.735853E-5
536.000000	45.792198	-5.426214E-5
537.000000	45.635627	-5.500272E-5
538.000000	45.107245	-4.085792E-5
539.000000	45.282988	-4.044837E-5
540.000000	45.059400	-3.378686E-5
541.000000	44.417986	-2.914951E-5
542.000000	44.660089	-3.041546E-5
543.000000	44.780653	-3.578539E-5
544.000000	45.906921	-4.900210E-5
545.000000	45.959679	-5.363961E-5
546.000000	46.008804	-4.781136E-5
547.000000	46.242539	-4.808548E-5
548.000000	45.987230	-3.908289E-5
549.000000	45.389696	-2.817706E-5
550.000000	45.058853	-2.757508E-5
551.000000	45.008567	-3.055577E-5
552.000000	45.909738	-4.110643E-5
553.000000	46.353484	-5.068379E-5
554.000000	46.390463	-5.249461E-5
555.000000	46.846990	-5.333755E-5
556.000000	47.176203	-4.717027E-5
557.000000	46.045659	-3.652047E-5
558.000000	45.904741	-3.464451E-5
559.000000	45.946254	-3.864816E-5
560.000000	46.387072	-4.642942E-5
561.000000	46.505594	-5.465355E-5
562.000000	46.572914	-4.974372E-5
563.000000	46.652322	-4.891496E-5
564.000000	46.081385	-4.168272E-5
565.000000	45.258233	-3.182840E-5
566.000000	45.700036	-3.169171E-5
567.000000	46.157163	-3.421278E-5
568.000000	45.888113	-4.086252E-5
569.000000	46.082721	-4.712600E-5
570.000000	46.004002	-4.477261E-5
571.000000	45.841816	-4.166893E-5
572.000000	45.676696	-3.811610E-5
573.000000	45.160649	-3.070834E-5
574.000000	45.549526	-3.096955E-5
575.000000	45.971037	-3.636148E-5
576.000000	46.488582	-4.673389E-5
577.000000	46.761847	-5.232510E-5
578.000000	46.387670	-5.478028E-5
579.000000	46.427560	-5.137628E-5
580.000000	45.709959	-4.212315E-5
581.000000	46.338390	-3.807012E-5
582.000000	46.313448	-3.586601E-5
583.000000	46.557506	-3.995551E-5
584.000000	46.978002	-4.802294E-5
585.000000	46.733458	-5.094185E-5
586.000000	46.909147	-4.882917E-5
587.000000	46.998439	-4.641548E-5
588.000000	46.878229	-3.931547E-5
589.000000	46.487748	-3.722026E-5
590.000000	46.864170	-3.850744E-5
591.000000	46.631741	-5.633670E-5
592.000000	46.475411	-5.653876E-5
593.000000	46.340100	-5.650485E-5
594.000000	46.672525	-5.438642E-5
595.000000	46.864463	-5.314034E-5
596.000000	47.268743	-5.408867E-5
597.000000	47.104799	-5.537167E-5
598.000000	47.294636	-6.015020E-5
599.000000	47.195758	-6.430022E-5
600.000000	47.100936	-6.702718E-5
601.000000	46.804499	-6.895389E-5
602.000000	46.828675	-6.811936E-5
603.000000	46.164503	-6.601655E-5
604.000000	45.907107	-6.161359E-5
605.000000	46.241271	-5.907363E-5
606.000000	46.256932	-5.957916E-5
607.000000	46.121209	-6.058810E-5
608.000000	46.296721	-6.608960E-5
609.000000	46.435476	-7.193306E-5
610.000000	46.676388	-7.531513E-5
611.000000	46.381094	-7.707629E-5
612.000000	46.180389	-7.585600E-5
613.000000	45.531698	-7.161802E-5
614.000000	45.058548	-6.555163E-5
615.000000	45.240385	-6.199098E-5
616.000000	45.356973	-6.279061E-5
617.000000	45.148851	-6.612462E-5
618.000000	45.349086	-7.248495E-5
619.000000	45.032101	-7.702703E-5
620.000000	44.929301	-7.914558E-5
621.000000	44.513563	-8.038976E-5
622.000000	44.075364	-8.067388E-5
623.000000	44.153884	-8.240761E-5
624.000000	43.854463	-8.407880E-5
625.000000	42.721871	-8.644629E-5
626.000000	42.948014	-8.190041E-5
627.000000	40.818213	-7.994169E-5
628.000000	41.161845	-7.905385E-5
629.000000	41.385100	-7.952622E-5
630.000000	41.383746	-8.086850E-5
631.000000	41.284231	-8.421741E-5
632.000000	41.185073	-8.811423E-5
633.000000	41.291352	-9.076120E-5
634.000000	41.439558	-9.337454E-5
635.000000	41.169560	-9.237390E-5
636.000000	41.354577	-9.159592E-5
637.000000	41.401027	-9.150708E-5
638.000000	41.347801	-9.112026E-5
639.000000	41.444065	-9.242816E-5
640.000000	41.403856	-9.069519E-5
641.000000	41.663399	-8.962086E-5
642.000000	41.990049	-9.005496E-5
643.000000	42.308955	-9.097008E-5
644.000000	42.449498	-9.606175E-5
645.000000	42.686687	-0.000101
646.000000	43.039864	-0.000105
647.000000	43.234986	-0.000106
648.000000	43.305349	-0.000101
649.000000	43.452041	-9.810953E-5
650.000000	43.270611	-9.517490E-5
651.000000	43.990369	-9.828713E-5
652.000000	44.409813	-0.000105
653.000000	44.636504	-0.000109
654.000000	44.821187	-0.000112
655.000000	44.761097	-0.000109
656.000000	45.116744	-0.000104
657.000000	45.116221	-0.000103
658.000000	45.411581	-0.000101
659.000000	45.548319	-0.000107
660.000000	46.177752	-0.000118
661.000000	46.268545	-0.000122
662.000000	46.343666	-0.000125
663.000000	46.432093	-0.000119
664.000000	46.226609	-0.000107
665.000000	46.548603	-0.000102
666.000000	47.118728	-0.000106
667.000000	47.276398	-0.000114
668.000000	47.091917	-0.000123
669.000000	47.714005	-0.000131
670.000000	47.625551	-0.000127
671.000000	47.637669	-0.000117
672.000000	47.784964	-0.000114
673.000000	48.043211	-0.000112
674.000000	48.093028	-0.000113
675.000000	48.697680	-0.000125
676.000000	48.445893	-0.000129
677.000000	48.401946	-0.000128
678.000000	48.493597	-0.000128
679.000000	48.386362	-0.000119
680.000000	48.793016	-0.000114
681.000000	48.688963	-0.000119
682.000000	48.930626	-0.000128
683.000000	49.004128	-0.000132
684.000000	48.860409	-0.000134
685.000000	48.845547	-0.000132
686.000000	48.525443	-0.000118
687.000000	48.830347	-0.000116
688.000000	48.929950	-0.000124
689.000000	49.166336	-0.000129
690.000000	49.437288	-0.000137
691.000000	49.513931	-0.000140
692.000000	49.364914	-0.000132
693.000000	49.221213	-0.000124
694.000000	49.396449	-0.000118
695.000000	49.667816	-0.000117
696.000000	49.639219	-0.000124
697.000000	49.904787	-0.000134
698.000000	50.308292	-0.000140
699.000000	50.150210	-0.000135
700.000000	50.477563	-0.000130
701.000000	50.252791	-0.000127
702.000000	50.098942	-0.000121
703.000000	50.573634	-0.000126
704.000000	50.908645	-0.000139
705.000000	50.791779	-0.000140
706.000000	50.938692	-0.000134
707.000000	50.977419	-0.000135
708.000000	50.714820	-0.000132
709.000000	50.708832	-0.000119
710.000000	50.929300	-0.000121
711.000000	51.164946	-0.000142
712.000000	50.790395	-0.000151
713.000000	50.743074	-0.000142
714.000000	50.667267	-0.000130
715.000000	50.523129	-0.000121
716.000000	50.770587	-0.000123
717.000000	50.820102	-0.000127
718.000000	50.660850	-0.000133
719.000000	50.783316	-0.000140
720.000000	50.912807	-0.000140
721.000000	50.907605	-0.000139
722.000000	50.905319	-0.000133
723.000000	50.567831	-0.000124
724.000000	50.680434	-0.000126
725.000000	50.910387	-0.000133
726.000000	51.306657	-0.000138
727.000000	51.053272	-0.000142
728.000000	51.121167	-0.000140
729.000000	51.041390	-0.000133
730.000000	50.868219	-0.000127
731.000000	50.866307	-0.000125
732.000000	51.048986	-0.000127
733.000000	51.044944	-0.000134
734.000000	51.256608	-0.000140
735.000000	50.986841	-0.000137
736.000000	50.808474	-0.000134
737.000000	51.033381	-0.000131
738.000000	50.962390	-0.000126
739.000000	50.932009	-0.000126
740.000000	51.232505	-0.000129
741.000000	51.167548	-0.000132
742.000000	51.202368	-0.000134
743.000000	50.979143	-0.000131
744.000000	50.967055	-0.000125
745.000000	50.923706	-0.000122
746.000000	51.069477	-0.000119
747.000000	51.052928	-0.000120
748.000000	51.073652	-0.000124
749.000000	51.092231	-0.000124
750.000000	50.977861	-0.000124
751.000000	51.007123	-0.000122
752.000000	50.790121	-0.000115
753.000000	50.820493	-0.000112
754.000000	50.800823	-0.000110
755.000000	50.922476	-0.000111
756.000000	50.978303	-0.000114
757.000000	50.742829	-0.000113
758.000000	50.761919	-0.000111
759.000000	50.724958	-0.000109
760.000000	50.560593	-0.000105
761.000000	50.560952	-0.000101
762.000000	50.676689	-0.000100
763.000000	50.620097	-0.000102
764.000000	50.567841	-0.000104
765.000000	50.532514	-0.000103
766.000000	50.615646	-0.000101
767.000000	50.566703	-9.892528E-5
768.000000	50.450957	-9.567646E-5
769.000000	50.459013	-9.386506E-5
770.000000	50.396790	-9.410385E-5
771.000000	50.540268	-9.558874E-5
772.000000	50.463725	-9.670908E-5
773.000000	50.420577	-9.581226E-5
774.000000	50.210517	-9.287897E-5
775.000000	50.238007	-8.917168E-5
776.000000	50.250311	-8.632407E-5
777.000000	50.148049	-8.658218E-5
778.000000	50.217956	-8.905937E-5
779.000000	50.131517	-9.121263E-5
780.000000	50.073487	-9.171177E-5
781.000000	49.969419	-8.939142E-5
782.000000	49.965600	-8.598927E-5
783.000000	50.050036	-8.329275E-5
784.000000	49.970919	-8.252602E-5
785.000000	49.950517	-8.484489E-5
786.000000	49.481799	-8.559442E-5
787.000000	49.659560	-8.653513E-5
788.000000	49.430993	-8.522516E-5
789.000000	49.491461	-8.184283E-5
790.000000	49.409312	-7.897354E-5
791.000000	49.393118	-7.789266E-5
792.000000	49.486445	-7.926355E-5
793.000000	49.310259	-8.170789E-5
794.000000	49.155800	-8.457547E-5
795.000000	49.141222	-8.592892E-5
796.000000	48.906934	-8.212710E-5
797.000000	48.932791	-7.921425E-5
798.000000	48.934191	-7.856842E-5
799.000000	48.948701	-7.956606E-5
800.000000	48.889502	-8.274105E-5
801.000000	48.755742	-8.643942E-5
802.000000	48.638612	-8.734495E-5
803.000000	48.579776	-8.486660E-5
804.000000	48.496428	-8.047530E-5
805.000000	48.691061	-7.772942E-5
806.000000	48.669006	-7.694736E-5
807.000000	48.402652	-7.886318E-5
808.000000	48.366214	-8.326610E-5
809.000000	48.422588	-8.484549E-5
810.000000	48.127145	-8.217399E-5
811.000000	48.114544	-7.945202E-5
812.000000	48.289322	-7.526292E-5
813.000000	48.247917	-7.299909E-5
814.000000	48.176899	-7.498443E-5
815.000000	48.045534	-7.757692E-5
816.000000	48.038396	-8.143522E-5
817.000000	47.870705	-8.133574E-5
818.000000	47.841193	-7.653871E-5
819.000000	47.703063	-7.222302E-5
820.000000	47.565049	-7.000152E-5
821.000000	47.585750	-7.072381E-5
822.000000	47.653679	-7.439949E-5
823.000000	47.601069	-7.826466E-5
824.000000	47.298670	-7.910367E-5
825.000000	47.309754	-7.715782E-5
826.000000	47.203750	-7.306552E-5
827.000000	47.003745	-7.112521E-5
828.000000	47.053152	-7.187613E-5
829.000000	46.985896	-7.339052E-5
830.000000	46.924182	-7.589624E-5
831.000000	46.692327	-7.761088E-5
832.000000	46.608584	-7.668059E-5
833.000000	46.549788	-7.373349E-5
834.000000	46.346385	-7.005941E-5
835.000000	46.364282	-6.773906E-5
836.000000	46.260698	-6.860342E-5
837.000000	46.109545	-7.089137E-5
838.000000	45.919431	-7.216793E-5
839.000000	45.815674	-7.250023E-5
840.000000	45.720714	-7.131192E-5
841.000000	45.584354	-6.826433E-5
842.000000	45.512072	-6.625683E-5
843.000000	45.423618	-6.704035E-5
844.000000	45.205182	-6.848449E-5
845.000000	45.070772	-6.952764E-5
846.000000	44.850796	-6.952298E-5
847.000000	44.797952	-6.848433E-5
848.000000	44.874443	-6.569011E-5
849.000000	44.511156	-6.252650E-5
850.000000	44.505703	-6.256383E-5
851.000000	44.324793	-6.329205E-5
852.000000	44.001122	-6.342522E-5
853.000000	43.926275	-6.403041E-5
854.000000	43.853347	-6.303999E-5
855.000000	43.445860	-6.022053E-5
856.000000	43.504577	-5.834725E-5
857.000000	43.327653	-5.703448E-5
858.000000	43.079745	-5.703633E-5
859.000000	42.960132	-5.757918E-5
860.000000	42.804352	-5.684127E-5
861.000000	42.495874	-5.479326E-5
862.000000	42.262889	-5.220871E-5
863.000000	42.010662	-4.956029E-5
864.000000	41.841646	-4.844610E-5
865.000000	41.518496	-4.799094E-5
866.000000	41.324982	-4.706773E-5
867.000000	40.989525	-4.665120E-5
868.000000	40.675127	-4.529389E-5
869.000000	40.267487	-4.267735E-5
870.000000	40.205098	-4.150957E-5
871.000000	39.815309	-4.022492E-5
872.000000	39.468210	-3.936135E-5
873.000000	38.982224	-3.904332E-5
874.000000	38.537507	-3.815808E-5
875.000000	38.143007	-3.677151E-5
876.000000	37.673258	-3.529323E-5
877.000000	37.118443	-3.368974E-5
878.000000	36.774638	-3.288817E-5
879.000000	36.141924	-3.191745E-5
880.000000	35.625233	-3.115599E-5
881.000000	34.950481	-3.043599E-5
882.000000	34.445585	-2.941650E-5
883.000000	33.620646	-2.827685E-5
884.000000	33.030803	-2.744905E-5
885.000000	32.272256	-2.608201E-5
886.000000	31.649946	-2.505957E-5
887.000000	30.614824	-2.435689E-5
888.000000	30.113376	-2.394196E-5
889.000000	29.225361	-2.304137E-5
890.000000	28.447392	-2.221243E-5
891.000000	27.715789	-2.129680E-5
892.000000	26.819377	-2.026976E-5
893.000000	26.008387	-1.960682E-5
894.000000	25.256566	-1.929089E-5
895.000000	24.375940	-1.864675E-5
896.000000	23.553668	-1.776334E-5
897.000000	22.723099	-1.714682E-5
898.000000	21.870380	-1.640351E-5
899.000000	21.153551	-1.579914E-5
900.000000	20.413865	-1.522690E-5
901.000000	19.598999	-1.452614E-5
902.000000	18.793977	-1.402520E-5
903.000000	18.105996	-1.340356E-5
904.000000	17.357696	-1.279003E-5
905.000000	16.651555	-1.241781E-5
906.000000	15.977909	-1.179826E-5
907.000000	15.300671	-1.129232E-5
908.000000	14.667353	-1.082507E-5
909.000000	14.051838	-1.029720E-5
910.000000	13.472061	-9.925830E-6
911.000000	12.882515	-9.480541E-6
912.000000	12.310831	-9.083189E-6
913.000000	11.785135	-8.768173E-6
914.000000	11.230149	-8.308913E-6
915.000000	10.727264	-7.925761E-6
916.000000	10.238092	-7.507346E-6
917.000000	9.736587	-7.047389E-6
918.000000	9.311172	-6.842206E-6
919.000000	8.893746	-6.533001E-6
920.000000	8.453602	-6.114336E-6
921.000000	8.073225	-5.878781E-6
922.000000	7.676946	-5.553056E-6
923.000000	7.324790	-5.234888E-6
924.000000	6.995183	-5.025605E-6
925.000000	6.655953	-4.728607E-6
926.000000	6.313042	-4.530715E-6
927.000000	6.025551	-4.333328E-6
928.000000	5.721618	-4.082897E-6
929.000000	5.445557	-3.889356E-6
930.000000	5.165301	-3.607069E-6
931.000000	4.903818	-3.363998E-6
932.000000	4.675824	-3.204198E-6
933.000000	4.436184	-3.001595E-6
934.000000	4.200916	-2.849911E-6
935.000000	4.012500	-2.707141E-6
936.000000	3.788315	-2.525160E-6
937.000000	3.598154	-2.409694E-6
938.000000	3.415432	-2.260137E-6
939.000000	3.229306	-2.114569E-6
940.000000	3.071169	-2.032680E-6
941.000000	2.906962	-1.912174E-6
942.000000	2.751350	-1.816444E-6
943.000000	2.610032	-1.714791E-6
944.000000	2.477294	-1.584857E-6
945.000000	2.339907	-1.482209E-6
946.000000	2.214495	-1.382787E-6
947.000000	2.093134	-1.288642E-6
948.000000	1.981703	-1.229727E-6
949.000000	1.869723	-1.155325E-6
950.000000	1.772017	-1.087062E-6
951.000000	1.678564	-1.025401E-6
952.000000	1.582750	-9.516174E-7
953.000000	1.495346	-8.995680E-7
954.000000	1.412062	-8.507359E-7
955.000000	1.333364	-7.938364E-7
956.000000	1.258822	-7.555551E-7
957.000000	1.190155	-7.068683E-7
958.000000	1.122387	-6.547082E-7
959.000000	1.059384	-6.107397E-7
960.000000	0.999116	-5.618235E-7
961.000000	0.941036	-5.251073E-7
962.000000	0.889048	-4.949329E-7
963.000000	0.839196	-4.638457E-7
964.000000	0.793817	-4.427065E-7
965.000000	0.747921	-4.119176E-7
966.000000	0.703486	-3.825058E-7
967.000000	0.664647	-3.613627E-7
968.000000	0.625157	-3.363282E-7
969.000000	0.588987	-3.168677E-7
970.000000	0.556658	-2.982652E-7
971.000000	0.525112	-2.761829E-7
972.000000	0.494644	-2.570926E-7
973.000000	0.467228	-2.381467E-7
974.000000	0.440582	-2.192964E-7
975.000000	0.414569	-2.042430E-7
976.000000	0.391077	-1.903863E-7
977.000000	0.368869	-1.791889E-7
978.000000	0.348842	-1.701380E-7
979.000000	0.328301	-1.594680E-7
980.000000	0.310041	-1.501317E-7
981.000000	0.292209	-1.403660E-7
982.000000	0.276361	-1.319981E-7
983.000000	0.261476	-1.253343E-7
984.000000	0.246496	-1.176578E-7
985.000000	0.232371	-1.098215E-7
986.000000	0.219598	-1.025022E-7
987.000000	0.207335	-9.464809E-8
988.000000	0.196139	-8.814278E-8
989.000000	0.185525	-8.247491E-8
990.000000	0.175731	-7.708947E-8
991.000000	0.166290	-7.314605E-8
992.000000	0.157294	-6.968992E-8
993.000000	0.149551	-6.674492E-8
994.000000	0.141457	-6.388757E-8
995.000000	0.133856	-6.073858E-8
996.000000	0.126461	-5.742433E-8
997.000000	0.120148	-5.475082E-8
