Voltage (V)	Current (A)	Current Density (A/m^2)	 Dividing Wavelength (nm) = 525  Light Power Density (W/m^2) = 1042.670581  Total Light Power Density (W/m^2) = 1042.670581	
-0.199980	-0.000159	-27.411328
-0.191896	-0.000158	-27.170483
-0.183818	-0.000158	-27.239448
-0.175743	-0.000157	-27.138103
-0.167703	-0.000156	-26.912155
-0.159594	-0.000156	-26.908207
-0.151483	-0.000157	-27.030517
-0.143442	-0.000155	-26.779034
-0.135332	-0.000154	-26.613621
-0.127223	-0.000157	-27.059586
-0.119177	-0.000155	-26.794086
-0.111074	-0.000155	-26.795103
-0.103033	-0.000157	-27.030724
-0.094926	-0.000156	-26.816052
-0.086850	-0.000155	-26.793534
-0.078775	-0.000155	-26.643983
-0.070699	-0.000153	-26.438224
-0.062623	-0.000154	-26.609293
-0.054547	-0.000153	-26.420586
-0.046434	-0.000152	-26.240310
-0.038388	-0.000154	-26.494397
-0.030281	-0.000152	-26.251966
-0.022171	-0.000151	-26.116828
-0.014127	-0.000153	-26.305431
-0.006018	-0.000150	-25.927603
0.002002	-0.000152	-26.266121
0.010079	-0.000150	-25.8935170ª018190	-0.00055!-"6n809466
0.026233	m0.00142-26.175793
0.0343ô3	N0.000149	-25.7:951Žp&042385	-0.000149	-25.723138
0.85092	-0.000150	-25.878431
0.058605	-00° 148	-25.546052
0.066650	-0.00 1t1	-24.²65310
0.074725	-0.00004¼	-25.48¸50r
.°(2835	-0.000148	-25.449810
0.090877	-0.000147-"7.³¶1qs0
0.098988-p&000148-:4.460672
0.100°)A,0000147	-25.3391·2H0.115139	-0.8054'mz=.355(1p
0.123254	-0.000147	/2=/370793
°.1q129:	%1/0´0145	2´>958845
0.139408	-0. 0p944	-24.862138
°.1v7452-p&000145	-2$.y<9362
0.155560I-00(0Q83	-24.73191´
0.163638	-0.000143	­24l68823<
0.17167y	-.000143	-24.6506%7
0.179789-8/00014"	m:4.519431
0.187902	-0.000142	-24.420776
0.19514-0.000142	-"4n<5344Š .214´56	-0.000141ˆ-¶v.2918412.2120¹4	o0.000349-24.243483
1.¶22°$	-0.000!3w-23.701569
0.228281	-0.000139	-24.0r230
8.76358	-0.000138	©24.029(2x0n:44431	-0.000139	-23.995121
0.252=4-0.000138	-23.764138
0.260583-p&000139	-23*9##6r9
0.268694	0® 00±36K-23.48657"
0.276740	-0.000135	-23.318034
0.284850	-0.000135	-23.282121
0.292961	-0.000136	-23.459138
0.301004	-0.000135	-23.205586
0.309078	-0.000134	-23.089759
0.317155	-0.000134	-23.146241
0.325236	-0.000132	-22.760069
0.333346	-0.000132	-22.672517
0.341387	-0.000131	-22.540828
0.349494	-0.000130	-22.394500
0.357603	-0.000128	-22.153966
0.365647	-0.000127	-21.898603
0.373757	-0.000126	-21.747276
0.381799	-0.000125	-21.598914
0.389875	-0.000123	-21.241552
0.397981	-0.000122	-21.019345
0.406027	-0.000121	-20.830810
0.414134	-0.000119	-20.446155
0.422183	-0.000116	-20.019362
0.430291	-0.000113	-19.498707
0.438404	-0.000110	-18.883172
0.446443	-0.000106	-18.345000
0.454581	-0.000101	-17.437500
0.462656	-9.396596E-5	-16.201028
0.470732	-8.686975E-5	-14.977543
0.478807	-7.914507E-5	-13.645702
0.486845	-6.774066E-5	-11.679424
0.494951	-5.483116E-5	-9.453648
0.503053	-3.685444E-5	-6.354214
0.511089	-1.678874E-5	-2.894610
0.519165	8.239628E-6	1.420626
0.527227	3.848750E-5	6.635776
0.535320	7.545995E-5	13.010336
0.543413	0.000119	20.591500
0.551487	0.000171	29.537103
0.559562	0.000231	39.810276
0.567673	0.000300	51.751707
0.575716	0.000378	65.233707
0.583822	0.000466	80.326724
0.591862	0.000562	96.848983
0.599974	0.000668	115.158569
