Voltage (V)	Current (A)	Current Density (A/m^2)	 Dividing Wavelength (nm) = 810  Light Power Density (W/m^2) = 1076.543839  Total Light Power Density (W/m^2) = 1076.543839	
-0.199927	-2.122606E-6	-0.265326
-0.193250	-2.152431E-6	-0.269054
-0.186530	-2.150911E-6	-0.268864
-0.179798	-2.161059E-6	-0.270132
-0.173088	-2.116200E-6	-0.264525
-0.166375	-2.136247E-6	-0.267031
-0.159668	-2.125676E-6	-0.265709
-0.152921	-2.153706E-6	-0.269213
-0.146218	-2.084586E-6	-0.260573
-0.139514	-2.115892E-6	-0.264487
-0.132834	-2.146967E-6	-0.268371
-0.126053	-2.114176E-6	-0.264272
-0.119383	-2.117439E-6	-0.264680
-0.112675	-2.125552E-6	-0.265694
-0.105968	-2.090439E-6	-0.261305
-0.099262	-2.138316E-6	-0.267290
-0.092523	-2.103999E-6	-0.263000
-0.085812	-2.090790E-6	-0.261349
-0.079107	-2.075393E-6	-0.259424
-0.072427	-2.070707E-6	-0.258838
-0.065654	-2.096852E-6	-0.262107
-0.058977	-2.089644E-6	-0.261205
-0.052279	-2.079440E-6	-0.259930
-0.045564	-2.087498E-6	-0.260937
-0.038855	-2.080457E-6	-0.260057
-0.032116	-2.090057E-6	-0.261257
-0.025409	-2.093268E-6	-0.261659
-0.018707	-2.070532E-6	-0.258817
-0.012027	-2.050032E-6	-0.256254
-0.005249	-2.092568E-6	-0.261571
0.001397	-2.083259E-6	-0.260407
0.008103	-2.076942E-6	-0.259618
0.014811	-2.092477E-6	-0.261560
0.021551	-2.057531E-6	-0.257191
0.028265	-2.023479E-6	-0.252935
0.034937	-2.027423E-6	-0.253428
0.041638	-2.033242E-6	-0.254155
0.048350	-2.062580E-6	-0.257823
0.055096	-2.028611E-6	-0.253576
0.061807	-2.037347E-6	-0.254668
0.068516	-2.019733E-6	-0.252467
0.075185	-2.043660E-6	-0.255458
0.081963	-2.013255E-6	-0.251657
0.088638	-2.008725E-6	-0.251091
0.095349	-2.027169E-6	-0.253396
0.102055	-2.019958E-6	-0.252495
0.108759	-2.021128E-6	-0.252641
0.115499	-1.993644E-6	-0.249205
0.122215	-2.006181E-6	-0.250773
0.128888	-1.989735E-6	-0.248717
0.135594	-1.972956E-6	-0.246620
0.142342	-1.943615E-6	-0.242952
0.149052	-1.968371E-6	-0.246046
0.155761	-1.967253E-6	-0.245907
0.162465	-1.969619E-6	-0.246202
0.169203	-1.922599E-6	-0.240325
0.175909	-1.921606E-6	-0.240201
0.182623	-1.958507E-6	-0.244813
0.189297	-1.939333E-6	-0.242417
0.196005	-1.907765E-6	-0.238471
0.202748	-1.877259E-6	-0.234657
0.209451	-1.920218E-6	-0.240027
0.216162	-1.841613E-6	-0.230202
0.222873	-1.854358E-6	-0.231795
0.229610	-1.833808E-6	-0.229226
0.236321	-1.790247E-6	-0.223781
0.242997	-1.786236E-6	-0.223280
0.249703	-1.741725E-6	-0.217716
0.256445	-1.791431E-6	-0.223929
0.263146	-1.737445E-6	-0.217181
0.269854	-1.697166E-6	-0.212146
0.276567	-1.648968E-6	-0.206121
0.283246	-1.624929E-6	-0.203116
0.290022	-1.575638E-6	-0.196955
0.296689	-1.518742E-6	-0.189843
0.303395	-1.476533E-6	-0.184567
0.310114	-1.377886E-6	-0.172236
0.316851	-1.315653E-6	-0.164457
0.323559	-1.233175E-6	-0.154147
0.330264	-1.135893E-6	-0.141987
0.336951	-1.057552E-6	-0.132194
0.343659	-9.297135E-7	-0.116214
0.350396	-7.984013E-7	-0.099800
0.357102	-6.860408E-7	-0.085755
0.363808	-4.873271E-7	-0.060916
0.370497	-3.013368E-7	-0.037667
0.377328	-8.586365E-8	-0.010733
0.383959	2.048145E-7	0.025602
0.390626	4.936857E-7	0.061711
0.397322	7.893174E-7	0.098665
0.404084	1.198898E-6	0.149862
0.410786	1.657297E-6	0.207162
0.417486	2.173952E-6	0.271744
0.424201	2.785769E-6	0.348221
0.430911	3.481322E-6	0.435165
0.437646	4.305904E-6	0.538238
0.444358	5.278925E-6	0.659866
0.451025	6.355353E-6	0.794419
0.457735	7.662749E-6	0.957844
0.464473	9.137342E-6	1.142168
0.471197	1.088078E-5	1.360097
0.477903	1.283713E-5	1.604641
0.484612	1.516790E-5	1.895987
0.491358	1.781983E-5	2.227479
0.498069	2.090027E-5	2.612534
0.504745	2.439018E-5	3.048773
0.511443	2.839967E-5	3.549959
0.518152	3.296788E-5	4.120985
0.524894	3.820781E-5	4.775976
0.531596	4.411162E-5	5.513953
0.538307	5.078132E-5	6.347665
0.544976	5.826018E-5	7.282523
0.551745	6.679467E-5	8.349334
0.558423	7.621550E-5	9.526938
0.565130	8.675011E-5	10.843764
0.571831	9.848117E-5	12.310146
0.578557	0.000111	13.933550
0.585297	0.000126	15.733225
0.592006	0.000142	17.706263
0.598695	0.000159	19.854788
0.605397	0.000178	22.212475
0.612143	0.000198	24.793700
0.618855	0.000221	27.584300
0.625564	0.000245	30.600738
0.632274	0.000271	33.851000
0.639011	0.000299	37.361125
0.645719	0.000329	41.110113
0.652389	0.000361	45.094475
0.659102	0.000395	49.362212
0.665810	0.000431	53.896250
0.672547	0.000470	58.731800
0.679252	0.000511	63.825000
0.685967	0.000554	69.196050
0.692645	0.000599	74.826725
0.699407	0.000647	80.824975
0.706118	0.000696	87.049913
0.712800	0.000748	93.545000
0.719503	0.000803	100.355788
0.726218	0.000860	107.448600
0.732947	0.000919	114.865025
0.739656	0.000980	122.553025
0.746334	0.001044	130.478000
0.753079	0.001110	138.750500
0.759855	0.001179	147.370250
0.766531	0.001249	156.140625
0.773242	0.001322	165.245625
0.779948	0.001397	174.613875
0.786697	0.001475	184.317500
0.793401	0.001554	194.231625
0.800111	0.001635	204.416625
