Voltage (V)	Current (A)	Current Density (A/m^2)	 Dividing Wavelength (nm) = 710  Light Power Density (W/m^2) = 1076.543839  Total Light Power Density (W/m^2) = 1076.543839	
-0.199820	-0.000463	-57.848750
-0.193138	-0.000449	-56.085150
-0.186424	-0.000441	-55.101350
-0.179689	-0.000425	-53.158325
-0.172977	-0.000414	-51.758713
-0.166268	-0.000403	-50.316388
-0.159561	-0.000392	-49.054550
-0.152812	-0.000383	-47.926425
-0.146116	-0.000372	-46.557088
-0.139405	-0.000360	-44.994038
-0.132724	-0.000350	-43.708787
-0.125950	-0.000343	-42.903213
-0.119282	-0.000331	-41.332850
-0.112574	-0.000323	-40.422987
-0.105862	-0.000313	-39.140525
-0.099156	-0.000305	-38.072900
-0.092418	-0.000298	-37.293175
-0.085711	-0.000287	-35.847725
-0.079004	-0.000280	-34.992337
-0.072325	-0.000271	-33.816350
-0.065550	-0.000262	-32.759512
-0.058875	-0.000255	-31.934625
-0.052176	-0.000249	-31.157625
-0.045464	-0.000240	-30.016663
-0.038754	-0.000235	-29.346988
-0.032016	-0.000227	-28.363325
-0.025309	-0.000219	-27.376475
-0.018604	-0.000209	-26.088838
-0.011930	-0.000207	-25.913975
-0.005146	-0.000199	-24.876013
0.001487	-0.000194	-24.234475
0.008193	-0.000185	-23.081913
0.014898	-0.000181	-22.646287
0.021642	-0.000172	-21.528188
0.028354	-0.000165	-20.570800
0.035023	-0.000158	-19.801100
0.041732	-0.000152	-18.979725
0.048442	-0.000143	-17.895450
0.055189	-0.000136	-16.996425
0.061901	-0.000129	-16.093650
0.068609	-0.000122	-15.273563
0.075279	-0.000115	-14.387913
0.082055	-0.000104	-12.947450
0.088716	-0.000100	-12.549350
0.095431	-8.754739E-5	-10.943424
0.102137	-8.127634E-5	-10.159543
0.108843	-7.390482E-5	-9.238103
0.115574	-6.427216E-5	-8.034020
0.122301	-5.545102E-5	-6.931378
0.128967	-4.658766E-5	-5.823457
0.135693	-3.407495E-5	-4.259369
0.142421	-2.707912E-5	-3.384890
0.149137	-1.522115E-5	-1.902644
0.156135	-8.689037E-6	-1.086130
0.162539	3.450146E-6	0.431268
0.169278	1.425387E-5	1.781734
0.175985	2.744992E-5	3.431240
0.182698	3.742738E-5	4.678422
0.189373	4.807633E-5	6.009541
0.196073	6.190050E-5	7.737562
0.202800	7.481048E-5	9.351310
0.209509	8.689393E-5	10.861741
0.216223	9.787718E-5	12.234647
0.222938	0.000111	13.917775
0.229677	0.000123	15.373063
0.236391	0.000138	17.241087
0.243068	0.000152	19.050100
0.249778	0.000168	20.977100
0.256515	0.000182	22.783738
0.263222	0.000198	24.773600
0.269934	0.000213	26.643387
0.276647	0.000230	28.728125
0.283316	0.000247	30.909625
0.290095	0.000263	32.933800
0.296764	0.000281	35.128438
0.303471	0.000300	37.459775
0.310190	0.000318	39.809812
0.316919	0.000336	41.946413
0.323628	0.000359	44.836325
0.330333	0.000380	47.525600
0.337020	0.000398	49.745388
0.343723	0.000420	52.514325
0.350465	0.000439	54.870663
0.357172	0.000464	58.013987
0.363876	0.000486	60.797550
0.370588	0.000512	64.027338
0.377323	0.000538	67.279875
0.384026	0.000562	70.293700
0.390700	0.000589	73.606975
0.397405	0.000618	77.249687
0.404157	0.000648	80.961200
0.410861	0.000674	84.250075
0.417568	0.000705	88.168775
0.424270	0.000738	92.243700
0.430989	0.000769	96.084025
0.437729	0.000803	100.372550
0.444431	0.000839	104.926900
0.451104	0.000878	109.790475
0.457805	0.000915	114.392013
0.464552	0.000955	119.341663
0.471257	0.000996	124.533725
0.477971	0.001040	129.979875
0.484718	0.001082	135.287125
0.491458	0.001131	141.383625
0.498173	0.001178	147.309500
0.504855	0.001233	154.179375
0.511558	0.001288	161.038625
0.518264	0.001345	168.157875
0.525014	0.001405	175.650375
0.531715	0.001469	183.651625
0.538430	0.001534	191.796125
0.545100	0.001603	200.420250
0.551871	0.001678	209.768875
0.558547	0.001755	219.338875
0.565254	0.001836	229.467625
0.571963	0.001921	240.175000
0.578674	0.002012	251.486750
0.585408	0.002108	263.459375
0.592118	0.002209	276.084500
0.598799	0.002312	289.058000
0.605505	0.002423	302.912375
0.612242	0.002541	317.599500
0.618953	0.002662	332.752000
0.625662	0.002788	348.504250
0.632373	0.002924	365.471625
0.639109	0.003063	382.857125
0.645824	0.003210	401.210625
0.652492	0.003361	420.133875
0.659198	0.003520	440.028875
0.665904	0.003684	460.530625
0.672642	0.003856	482.004125
0.679351	0.004034	504.266750
0.686056	0.004219	527.321500
0.692732	0.004408	550.947000
0.699502	0.004606	575.790500
0.706212	0.004809	601.097125
0.712891	0.005016	627.055875
0.719595	0.005231	653.912250
0.726303	0.005451	681.337250
0.733038	0.005678	709.691875
0.739761	0.005909	738.662125
0.746466	0.006146	768.300875
0.753141	0.006387	798.377250
0.759899	0.006637	829.591375
0.766575	0.006887	860.851875
0.773280	0.007143	892.917125
0.780003	0.007405	925.627500
0.786736	0.007672	958.939000
0.793440	0.007941	992.661125
0.800145	0.008215	1026.866750
