Voltage (V)	Current (A)	Current Density (A/m^2)	 Dividing Wavelength (nm) = 620  Light Power Density (W/m^2) = 1076.543839  Total Light Power Density (W/m^2) = 1076.543839	
-0.199808	-0.000616	-77.051063
-0.193132	-0.000602	-75.309213
-0.186419	-0.000591	-73.935587
-0.179680	-0.000580	-72.557450
-0.172971	-0.000568	-70.953613
-0.166260	-0.000555	-69.338775
-0.159554	-0.000544	-68.045400
-0.152811	-0.000534	-66.693463
-0.146106	-0.000521	-65.183225
-0.139400	-0.000511	-63.922525
-0.132725	-0.000499	-62.364450
-0.125946	-0.000492	-61.455713
-0.119276	-0.000480	-60.056150
-0.112571	-0.000473	-59.098063
-0.105861	-0.000465	-58.138425
-0.099157	-0.000456	-57.029225
-0.092410	-0.000445	-55.650000
-0.085707	-0.000436	-54.467688
-0.079004	-0.000428	-53.437675
-0.072327	-0.000420	-52.446738
-0.065550	-0.000414	-51.774563
-0.058870	-0.000404	-50.460538
-0.052171	-0.000400	-49.973213
-0.045458	-0.000392	-49.015113
-0.038750	-0.000383	-47.822888
-0.032013	-0.000373	-46.630500
-0.025304	-0.000365	-45.579863
-0.018599	-0.000358	-44.721863
-0.011928	-0.000354	-44.197775
-0.005146	-0.000344	-42.997925
0.001487	-0.000343	-42.878250
0.008193	-0.000327	-40.867787
0.014900	-0.000322	-40.235537
0.021645	-0.000318	-39.734875
0.028357	-0.000308	-38.541850
0.035027	-0.000301	-37.625575
0.041735	-0.000294	-36.782238
0.048439	-0.000286	-35.780212
0.055194	-0.000279	-34.891138
0.061905	-0.000270	-33.713012
0.068607	-0.000262	-32.690850
0.075281	-0.000253	-31.594275
0.082056	-0.000244	-30.456138
0.088733	-0.000238	-29.695475
0.095438	-0.000231	-28.930125
0.102147	-0.000223	-27.825388
0.108849	-0.000212	-26.560000
0.115596	-0.000203	-25.354500
0.122311	-0.000193	-24.088275
0.128984	-0.000180	-22.561588
0.135690	-0.000171	-21.382062
0.142431	-0.000162	-20.272263
0.149147	-0.000152	-19.024263
0.155849	-0.000138	-17.275438
0.162560	-0.000129	-16.071713
0.169295	-0.000118	-14.718013
0.176003	-0.000108	-13.530950
0.182705	-9.668402E-5	-12.085503
0.189387	-8.245776E-5	-10.307220
0.196089	-7.054399E-5	-8.817999
0.202837	-5.778956E-5	-7.223695
0.209540	-4.490467E-5	-5.613084
0.216247	-3.076727E-5	-3.845909
0.222951	-1.934444E-5	-2.418055
0.229742	-1.496423E-6	-0.187053
0.236389	1.144901E-5	1.431126
0.243079	2.532819E-5	3.166024
0.249777	4.155209E-5	5.194011
0.256514	5.712940E-5	7.141175
0.263207	7.247855E-5	9.059819
0.269918	8.927416E-5	11.159270
0.275512	0.000104	12.962862
0.283314	0.000125	15.665113
0.290089	0.000143	17.848063
0.296764	0.000161	20.175975
0.303472	0.000178	22.251525
0.310185	0.000195	24.355738
0.316925	0.000218	27.304263
0.323634	0.000239	29.816575
0.330344	0.000263	32.827275
0.337024	0.000277	34.669488
0.343730	0.000302	37.709000
0.350474	0.000326	40.749838
0.357176	0.000349	43.583038
0.363883	0.000373	46.659513
0.370599	0.000395	49.372188
0.377327	0.000425	53.126000
0.384041	0.000452	56.538763
0.390707	0.000477	59.643850
0.397415	0.000507	63.423738
0.404164	0.000536	67.042125
0.410864	0.000567	70.834200
0.417569	0.000600	74.963437
0.424279	0.000629	78.573375
0.430995	0.000662	82.692450
0.437731	0.000699	87.381362
0.444438	0.000736	91.985012
0.451107	0.000773	96.580975
0.457817	0.000811	101.377725
0.464560	0.000855	106.917875
0.471271	0.000895	111.922938
0.477976	0.000941	117.664913
0.484678	0.000989	123.618713
0.491420	0.001036	129.547375
0.498173	0.001089	136.168000
0.504850	0.001141	142.587500
0.511554	0.001198	149.806125
0.518256	0.001255	156.909750
0.525009	0.001318	164.749250
0.531705	0.001385	173.096500
0.538421	0.001451	181.327125
0.545095	0.001522	190.270250
0.551864	0.001599	199.912375
0.558546	0.001676	209.474000
0.565258	0.001761	220.068625
0.571963	0.001849	231.126375
0.578677	0.001944	242.995500
0.585411	0.002040	255.039750
0.592124	0.002141	267.655250
0.598805	0.002249	281.106625
0.605512	0.002361	295.111125
0.612247	0.002481	310.141875
0.618962	0.002605	325.607000
0.625664	0.002735	341.902000
0.632379	0.002872	358.961375
0.639109	0.003014	376.776625
0.645821	0.003164	395.470625
0.652496	0.003318	414.689750
0.659203	0.003477	434.679750
0.665909	0.003647	455.896375
0.672643	0.003821	477.577250
0.679354	0.004001	500.093875
0.686062	0.004187	523.410375
0.692741	0.004379	547.403125
0.699507	0.004579	572.434500
0.706215	0.004784	598.018625
0.712899	0.004994	624.250375
0.719596	0.005210	651.248875
0.726311	0.005433	679.149000
0.733046	0.005663	707.846375
0.739759	0.005896	737.011000
0.746467	0.006136	766.948000
0.753149	0.006379	797.371375
0.759908	0.006630	828.736875
0.766586	0.006881	860.107500
0.773292	0.007141	892.642250
0.780005	0.007403	925.400000
0.786743	0.007673	959.085000
0.793452	0.007944	993.027250
0.800150	0.008219	1027.386000
