Voltage (V)	Current (A)	Current Density (A/m^2)	 Dividing Wavelength (nm) = 740  Light Power Density (W/m^2) = 1053.797256  Total Light Power Density (W/m^2) = 1053.797256	
-0.199979	-0.000343	-42.910275
-0.187895	-0.000342	-42.761175
-0.175743	-0.000339	-42.393625
-0.163635	-0.000335	-41.878338
-0.151481	-0.000332	-41.536200
-0.139374	-0.000330	-41.217250
-0.127222	-0.000328	-40.981600
-0.115140	-0.000325	-40.677388
-0.103032	-0.000323	-40.397038
-0.090882	-0.000319	-39.918963
-0.078775	-0.000314	-39.293563
-0.066625	-0.000313	-39.163837
-0.054547	-0.000310	-38.781188
-0.042395	-0.000306	-38.303375
-0.030280	-0.000303	-37.892100
-0.018170	-0.000301	-37.683612
-0.006017	-0.000297	-37.112825
0.006041	-0.000294	-36.764600
0.018194	-0.000291	-36.385325
0.030306	-0.000287	-35.922112
0.042390	-0.000285	-35.623700
0.054541	-0.000281	-35.145088
0.066655	-0.000278	-34.711750
0.078805	-0.000275	-34.398550
0.090882	-0.000271	-33.827350
0.103034	-0.000266	-33.272087
0.115144	-0.000263	-32.896100
0.127260	-0.000260	-32.546087
0.139413	-0.000256	-32.021025
0.151489	-0.000252	-31.518712
0.163643	-0.000249	-31.174437
0.175751	-0.000245	-30.657838
0.187907	-0.000242	-30.302513
0.199991	-0.000239	-29.899875
0.212099	-0.000235	-29.333638
0.224252	-0.000232	-28.958438
0.236364	-0.000227	-28.421737
0.248513	-0.000224	-27.955563
0.260588	-0.000219	-27.386463
0.272739	-0.000215	-26.936800
0.284854	-0.000212	-26.497438
0.296933	-0.000206	-25.790563
0.309083	-0.000204	-25.479500
0.321194	-0.000200	-24.937763
0.333350	-0.000196	-24.501300
0.345465	-0.000192	-23.994412
0.357607	-0.000188	-23.496075
0.369693	-0.000184	-22.941413
0.381804	-0.000180	-22.475200
0.393951	-0.000175	-21.847375
0.406030	-0.000172	-21.465287
0.418184	-0.000167	-20.913338
0.430296	-0.000162	-20.282450
0.442409	-0.000159	-19.845650
0.454559	-0.000156	-19.441700
0.466638	-0.000151	-18.857163
0.478791	-0.000146	-18.297000
0.490900	-0.000143	-17.855738
0.503049	-0.000138	-17.273275
0.515131	-0.000135	-16.833525
0.527244	-0.000130	-16.295013
0.539392	-0.000126	-15.698062
0.551500	-0.000122	-15.214350
0.563654	-0.000117	-14.661725
0.575736	-0.000113	-14.131300
0.587877	-0.000108	-13.551525
0.600001	-0.000104	-13.004563
0.612076	-0.000100	-12.503213
0.624253	-9.414603E-5	-11.768254
0.636360	-8.963478E-5	-11.204348
0.648510	-8.491240E-5	-10.614050
0.660626	-7.987778E-5	-9.984723
0.672763	-7.477398E-5	-9.346747
0.684845	-6.833675E-5	-8.542094
0.696953	-6.335171E-5	-7.918964
0.709105	-5.722608E-5	-7.153260
0.721184	-5.050740E-5	-6.313425
0.733360	-4.488038E-5	-5.610047
0.745446	-3.779209E-5	-4.724011
0.757585	-3.041582E-5	-3.801978
0.769701	-2.306341E-5	-2.882926
0.781777	-1.514104E-5	-1.892630
0.793938	-6.881668E-6	-0.860209
0.806030	1.620008E-6	0.202501
0.818042	1.039110E-5	1.298887
0.830258	1.956415E-5	2.445519
0.842362	2.878861E-5	3.598576
0.854511	3.824865E-5	4.781081
0.866627	4.771481E-5	5.964351
0.878768	5.756873E-5	7.196091
0.890850	6.722368E-5	8.402960
0.902996	7.731347E-5	9.664184
0.915104	8.697109E-5	10.871386
0.927176	9.670058E-5	12.087573
0.939391	0.000107	13.389575
0.951469	0.000117	14.635325
0.963612	0.000127	15.862163
0.975728	0.000136	17.038813
0.987872	0.000147	18.344725
0.999955	0.000156	19.482850
