Wavelength (nm)	EQE (%)	Current (A)	Dark Current (A) -> 	-21.049606000E-12	
400.000000	23.828226	-5.039918E-7
403.000000	25.684514	-1.234672E-6
406.000000	24.530362	-1.916328E-6
409.000000	25.337473	-2.786485E-6
412.000000	24.881654	-4.191521E-6
415.000000	23.943983	-1.926198E-6
418.000000	26.515978	-1.849704E-6
421.000000	25.350499	-2.079197E-6
424.000000	25.590090	-1.897597E-6
427.000000	25.198113	-2.441766E-6
430.000000	25.404151	-3.927240E-6
433.000000	24.715500	-3.580567E-6
436.000000	24.078994	-3.458259E-6
439.000000	23.803607	-3.750524E-6
442.000000	23.221001	-3.842023E-6
445.000000	22.909873	-4.306765E-6
448.000000	22.558026	-4.814273E-6
451.000000	21.469800	-4.037422E-6
454.000000	22.545715	-3.902955E-6
457.000000	22.072825	-4.266021E-6
460.000000	22.493642	-3.196662E-6
463.000000	22.048463	-5.387566E-6
466.000000	22.828340	-4.393377E-6
469.000000	22.996662	-4.072704E-6
472.000000	22.882813	-3.749656E-6
475.000000	22.438464	-3.487336E-6
478.000000	23.036497	-4.595896E-6
481.000000	23.950963	-3.978881E-6
484.000000	23.376347	-3.745072E-6
487.000000	23.731049	-5.250936E-6
490.000000	23.827846	-4.339359E-6
493.000000	24.120702	-4.466238E-6
496.000000	24.329751	-5.420058E-6
499.000000	24.075060	-5.345230E-6
502.000000	24.486977	-4.938935E-6
505.000000	25.033450	-6.148765E-6
508.000000	25.300570	-8.020329E-6
511.000000	24.942395	-9.089952E-6
514.000000	24.562993	-5.736948E-6
517.000000	25.484795	-5.862950E-6
520.000000	25.438815	-1.007183E-5
523.000000	24.963620	-9.004025E-6
526.000000	25.414099	-5.438149E-6
529.000000	25.944529	-7.348870E-6
532.000000	26.019753	-8.008636E-6
535.000000	25.491933	-3.652788E-6
538.000000	26.574013	-6.652829E-6
541.000000	26.288929	-8.829512E-6
544.000000	26.365557	-4.015843E-6
547.000000	26.937331	-7.631073E-6
550.000000	26.789266	-6.868481E-6
553.000000	27.256215	-5.045597E-6
556.000000	27.151304	-6.818221E-6
559.000000	27.857532	-4.847404E-6
562.000000	27.390981	-6.106050E-6
565.000000	27.621881	-5.768507E-6
568.000000	27.488904	-5.664892E-6
571.000000	27.702388	-6.784124E-6
574.000000	27.281893	-6.174287E-6
577.000000	27.154627	-9.146489E-6
580.000000	27.745182	-6.641589E-6
583.000000	27.060399	-6.870363E-6
586.000000	28.005517	-9.230082E-6
589.000000	27.988811	-6.358501E-6
592.000000	27.358114	-3.575622E-6
595.000000	26.705457	-4.172942E-6
598.000000	27.176008	-3.371785E-6
601.000000	27.497331	-4.662744E-6
604.000000	27.666262	-4.857101E-6
607.000000	27.754347	-5.223533E-6
610.000000	27.541985	-5.288467E-6
613.000000	27.622249	-9.034128E-6
616.000000	26.562245	-1.102011E-5
619.000000	27.265023	-6.494694E-6
622.000000	28.226681	-1.335643E-5
625.000000	26.209951	-1.489468E-5
628.000000	27.979003	-8.250453E-6
631.000000	28.511330	-1.015753E-5
634.000000	27.806227	-1.210665E-5
637.000000	27.570279	-1.539429E-5
640.000000	27.600296	-1.520995E-5
643.000000	28.070055	-1.470627E-5
646.000000	27.774510	-1.735166E-5
649.000000	27.824720	-1.686181E-5
652.000000	27.681576	-2.099070E-5
655.000000	27.610607	-1.925167E-5
658.000000	28.125739	-2.122893E-5
661.000000	27.217536	-2.462297E-5
664.000000	27.982395	-2.237911E-5
667.000000	28.303150	-2.553834E-5
670.000000	28.255701	-2.557315E-5
673.000000	28.433761	-2.689004E-5
676.000000	28.186717	-2.820199E-5
679.000000	28.579464	-2.842373E-5
682.000000	28.539668	-2.889331E-5
685.000000	28.751301	-3.083022E-5
688.000000	28.776556	-3.064953E-5
691.000000	29.067477	-3.130138E-5
694.000000	29.130895	-3.019916E-5
697.000000	29.515557	-2.989538E-5
700.000000	29.263440	-3.261728E-5
703.000000	28.680976	-3.248411E-5
706.000000	28.097059	-3.280265E-5
709.000000	27.419883	-3.094496E-5
712.000000	26.623229	-3.424738E-5
715.000000	26.274483	-2.935595E-5
718.000000	25.684141	-2.718704E-5
721.000000	24.698540	-3.239822E-5
724.000000	24.191531	-2.476506E-5
727.000000	23.331756	-2.693712E-5
730.000000	22.339197	-2.279980E-5
733.000000	21.628290	-2.150572E-5
736.000000	20.253292	-2.037010E-5
739.000000	18.985952	-1.594943E-5
742.000000	17.724259	-1.686669E-5
745.000000	16.076352	-1.246374E-5
748.000000	14.816148	-1.215426E-5
751.000000	13.147108	-1.038501E-5
754.000000	11.674003	-8.037669E-6
757.000000	10.290388	-8.083157E-6
760.000000	8.892590	-5.667332E-6
763.000000	7.747901	-5.396712E-6
766.000000	6.691083	-4.240622E-6
769.000000	5.691203	-3.239930E-6
772.000000	4.782382	-3.017035E-6
775.000000	4.074571	-2.191458E-6
778.000000	3.426961	-2.027746E-6
781.000000	2.820015	-1.582541E-6
784.000000	2.362940	-1.250360E-6
787.000000	1.932534	-1.113014E-6
790.000000	1.621448	-8.497506E-7
793.000000	1.326259	-7.790794E-7
796.000000	1.084426	-6.041304E-7
799.000000	0.879563	-4.917438E-7
802.000000	0.703904	-4.190714E-7
805.000000	0.587992	-3.248835E-7
808.000000	0.467046	-2.847638E-7
811.000000	0.387932	-2.150813E-7
814.000000	0.315280	-1.855824E-7
817.000000	0.260062	-1.530518E-7
820.000000	0.219340	-1.259922E-7
823.000000	0.180125	-1.153868E-7
826.000000	0.155152	-8.948615E-8
829.000000	0.129138	-8.483754E-8
832.000000	0.109431	-6.811926E-8
835.000000	0.093176	-6.299064E-8
838.000000	0.079643	-5.445659E-8
841.000000	0.070944	-4.547098E-8
844.000000	0.061355	-4.294654E-8
847.000000	0.054752	-3.593258E-8
850.000000	0.048765	-3.481845E-8
853.000000	0.043212	-2.882561E-8
856.000000	0.038851	-2.611972E-8
859.000000	0.034811	-2.357556E-8
862.000000	0.031901	-1.974390E-8
865.000000	0.029160	-1.807385E-8
868.000000	0.026513	-1.529297E-8
871.000000	0.024402	-1.374131E-8
874.000000	0.022451	-1.163607E-8
877.000000	0.020618	-1.015650E-8
880.000000	0.018897	-9.159248E-9
883.000000	0.017491	-7.943646E-9
886.000000	0.016321	-7.312819E-9
889.000000	0.015064	-6.480682E-9
892.000000	0.013952	-5.790936E-9
895.000000	0.012873	-5.139959E-9
898.000000	0.012016	-4.763712E-9
901.000000	0.011200	-4.313132E-9
904.000000	0.010505	-4.219705E-9
907.000000	0.009642	-3.793585E-9
910.000000	0.009036	-3.498379E-9
913.000000	0.008362	-3.396851E-9
916.000000	0.007776	-2.988756E-9
919.000000	0.007311	-2.914389E-9
922.000000	0.006746	-2.705393E-9
925.000000	0.006285	-2.397667E-9
928.000000	0.005838	-2.319461E-9
931.000000	0.005415	-1.987143E-9
934.000000	0.005112	-1.987916E-9
937.000000	0.004683	-1.772772E-9
940.000000	0.004358	-1.533027E-9
943.000000	0.004092	-1.464902E-9
946.000000	0.003793	-1.282360E-9
949.000000	0.003532	-1.258609E-9
952.000000	0.003263	-1.103003E-9
955.000000	0.003081	-9.853769E-10
958.000000	0.002877	-8.917652E-10
961.000000	0.002671	-7.943050E-10
964.000000	0.002475	-7.336362E-10
967.000000	0.002309	-6.509467E-10
970.000000	0.002158	-5.988174E-10
973.000000	0.002026	-5.381945E-10
976.000000	0.001898	-4.845350E-10
979.000000	0.001805	-4.255077E-10
982.000000	0.001710	-3.709331E-10
985.000000	0.001618	-3.433757E-10
988.000000	0.001519	-3.152436E-10
991.000000	0.001437	-2.919681E-10
994.000000	0.001384	-2.622054E-10
997.000000	0.001307	-2.396222E-10
1000.000000	0.001238	-2.279610E-10
1003.000000	0.001169	-2.137837E-10
1006.000000	0.001121	-1.993304E-10
1009.000000	0.001076	-1.837802E-10
1012.000000	0.001019	-1.774864E-10
1015.000000	0.000965	-1.710045E-10
1018.000000	0.000925	-1.641063E-10
1021.000000	0.000886	-1.608861E-10
1024.000000	0.000832	-1.563402E-10
1027.000000	0.000773	-1.589504E-10
1030.000000	0.000702	-1.555894E-10
1033.000000	0.000658	-1.521755E-10
1036.000000	0.000602	-1.551611E-10
1039.000000	0.000546	-1.594139E-10
1042.000000	0.000532	-1.390070E-10
1045.000000	0.000567	-1.237208E-10
1048.000000	0.000555	-1.181483E-10
1051.000000	0.000531	-1.155732E-10
1054.000000	0.000468	-1.159545E-10
1057.000000	0.000424	-1.184240E-10
1060.000000	0.000378	-1.195621E-10
1063.000000	0.000333	-1.279442E-10
1066.000000	0.000278	-1.389718E-10
1069.000000	0.000209	-2.235912E-10
1072.000000	0.000154	-3.367006E-10
1075.000000	0.000219	-1.419047E-10
1078.000000	0.000254	-1.151450E-10
1081.000000	0.000278	-1.024574E-10
1084.000000	0.000282	-9.692006E-11
1087.000000	0.000291	-9.080202E-11
1090.000000	0.000285	-8.663147E-11
1093.000000	0.000289	-8.439671E-11
1096.000000	0.000279	-8.018516E-11
1099.000000	0.000259	-8.006200E-11
