Wavelength (nm)	EQE (%)	Current (A)	Dark Current (A) -> 	-31.354460000E-12	
400.000000	32.756685	-6.928380E-7
403.000000	34.358742	-1.651648E-6
406.000000	31.129538	-2.431860E-6
409.000000	30.456189	-3.349415E-6
412.000000	27.890268	-4.698347E-6
415.000000	29.442665	-2.368545E-6
418.000000	32.926346	-2.296879E-6
421.000000	30.231733	-2.479546E-6
424.000000	31.197884	-2.313435E-6
427.000000	30.047512	-2.911686E-6
430.000000	27.621299	-4.269990E-6
433.000000	27.106332	-3.926930E-6
436.000000	27.163110	-3.901204E-6
439.000000	26.694116	-4.205956E-6
442.000000	26.226102	-4.339231E-6
445.000000	25.313993	-4.758709E-6
448.000000	24.468893	-5.222085E-6
451.000000	24.325267	-4.574396E-6
454.000000	25.601703	-4.431986E-6
457.000000	24.830988	-4.799092E-6
460.000000	26.645696	-3.786727E-6
463.000000	23.735818	-5.799873E-6
466.000000	25.665457	-4.939388E-6
469.000000	25.992809	-4.603321E-6
472.000000	26.571146	-4.354039E-6
475.000000	26.058643	-4.049976E-6
478.000000	25.073839	-5.002356E-6
481.000000	26.942479	-4.475850E-6
484.000000	27.163130	-4.351744E-6
487.000000	25.609865	-5.666659E-6
490.000000	27.022918	-4.921223E-6
493.000000	26.396492	-4.887628E-6
496.000000	25.219905	-5.618362E-6
499.000000	25.764241	-5.720268E-6
502.000000	26.724622	-5.390260E-6
505.000000	25.861442	-6.352138E-6
508.000000	24.204800	-7.672968E-6
511.000000	23.428954	-8.538397E-6
514.000000	25.638829	-5.988221E-6
517.000000	26.413140	-6.076522E-6
520.000000	23.422070	-9.273353E-6
523.000000	23.444339	-8.456042E-6
526.000000	26.724987	-5.718655E-6
529.000000	25.686643	-7.275823E-6
532.000000	24.935512	-7.674917E-6
535.000000	27.755012	-3.977069E-6
538.000000	26.528194	-6.641358E-6
541.000000	24.396778	-8.194006E-6
544.000000	28.279275	-4.307329E-6
547.000000	25.661341	-7.269598E-6
550.000000	25.608257	-6.565683E-6
553.000000	27.807676	-5.147682E-6
556.000000	26.283797	-6.600373E-6
559.000000	28.360328	-4.934894E-6
562.000000	27.071883	-6.034916E-6
565.000000	27.499197	-5.742886E-6
568.000000	27.438438	-5.654492E-6
571.000000	26.759961	-6.553330E-6
574.000000	27.348106	-6.189272E-6
577.000000	24.956324	-8.406035E-6
580.000000	26.944796	-6.449994E-6
583.000000	26.350584	-6.690148E-6
586.000000	25.429011	-8.380915E-6
589.000000	27.326359	-6.208005E-6
592.000000	27.862999	-3.641609E-6
595.000000	26.764859	-4.182224E-6
598.000000	27.530552	-3.415774E-6
601.000000	26.980892	-4.575171E-6
604.000000	26.579023	-4.666225E-6
607.000000	26.335821	-4.956558E-6
610.000000	26.578246	-5.103415E-6
613.000000	24.235700	-7.926524E-6
616.000000	22.500151	-9.334834E-6
619.000000	25.289620	-6.024141E-6
622.000000	23.699526	-1.121425E-5
625.000000	21.942063	-1.246931E-5
628.000000	25.222938	-7.437744E-6
631.000000	24.994150	-8.904489E-6
634.000000	23.928792	-1.041844E-5
637.000000	22.542818	-1.258713E-5
640.000000	22.504260	-1.240163E-5
643.000000	23.105186	-1.210511E-5
646.000000	22.477449	-1.404241E-5
649.000000	22.524762	-1.365003E-5
652.000000	21.755490	-1.649700E-5
655.000000	21.960935	-1.531240E-5
658.000000	22.147175	-1.671639E-5
661.000000	20.926423	-1.893157E-5
664.000000	21.544387	-1.723027E-5
667.000000	21.358874	-1.927242E-5
670.000000	21.191563	-1.917967E-5
673.000000	21.207324	-2.005594E-5
676.000000	20.892979	-2.090430E-5
679.000000	21.090656	-2.097573E-5
682.000000	21.296540	-2.156043E-5
685.000000	21.010896	-2.253013E-5
688.000000	21.068855	-2.244016E-5
691.000000	21.266212	-2.290057E-5
694.000000	21.347299	-2.213013E-5
697.000000	21.931089	-2.221331E-5
700.000000	21.593384	-2.406817E-5
703.000000	21.355662	-2.418745E-5
706.000000	21.083811	-2.461485E-5
709.000000	21.443156	-2.419987E-5
712.000000	20.883762	-2.686429E-5
715.000000	21.680638	-2.422334E-5
718.000000	21.754200	-2.302714E-5
721.000000	20.467348	-2.684797E-5
724.000000	21.360117	-2.186652E-5
727.000000	20.775097	-2.398539E-5
730.000000	20.454105	-2.087584E-5
733.000000	20.329580	-2.021437E-5
736.000000	19.246956	-1.935796E-5
739.000000	18.737304	-1.574055E-5
742.000000	17.340501	-1.650150E-5
745.000000	16.166448	-1.253359E-5
748.000000	14.931112	-1.224857E-5
751.000000	13.167743	-1.040131E-5
754.000000	11.875524	-8.176418E-6
757.000000	10.309473	-8.098149E-6
760.000000	8.832495	-5.629033E-6
763.000000	7.609543	-5.300340E-6
766.000000	6.367842	-4.035761E-6
769.000000	5.363637	-3.053451E-6
772.000000	4.409695	-2.781920E-6
775.000000	3.590187	-1.930938E-6
778.000000	3.000232	-1.775249E-6
781.000000	2.440433	-1.369526E-6
784.000000	2.028578	-1.073431E-6
787.000000	1.667177	-9.601855E-7
790.000000	1.368429	-7.171509E-7
793.000000	1.159004	-6.808294E-7
796.000000	0.955497	-5.323045E-7
799.000000	0.817207	-4.568825E-7
802.000000	0.691437	-4.116495E-7
805.000000	0.591681	-3.269215E-7
808.000000	0.515406	-3.142493E-7
811.000000	0.444320	-2.463447E-7
814.000000	0.398441	-2.345334E-7
817.000000	0.348813	-2.052836E-7
820.000000	0.313888	-1.803014E-7
823.000000	0.285358	-1.827984E-7
826.000000	0.255802	-1.475377E-7
829.000000	0.236154	-1.551418E-7
832.000000	0.211563	-1.316954E-7
835.000000	0.195727	-1.323192E-7
838.000000	0.179113	-1.224711E-7
841.000000	0.166245	-1.065528E-7
844.000000	0.154305	-1.080088E-7
847.000000	0.141791	-9.305460E-8
850.000000	0.133260	-9.514876E-8
853.000000	0.124028	-8.273631E-8
856.000000	0.116628	-7.840915E-8
859.000000	0.109727	-7.431200E-8
862.000000	0.102842	-6.365002E-8
865.000000	0.096447	-5.978012E-8
868.000000	0.091072	-5.253073E-8
871.000000	0.085900	-4.837250E-8
874.000000	0.080739	-4.184554E-8
877.000000	0.075487	-3.718496E-8
880.000000	0.071022	-3.442443E-8
883.000000	0.066979	-3.041930E-8
886.000000	0.063327	-2.837468E-8
889.000000	0.059387	-2.554856E-8
892.000000	0.055953	-2.322485E-8
895.000000	0.052524	-2.097210E-8
898.000000	0.049132	-1.947740E-8
901.000000	0.046326	-1.784057E-8
904.000000	0.043541	-1.748934E-8
907.000000	0.040116	-1.578385E-8
910.000000	0.037914	-1.467958E-8
913.000000	0.035472	-1.441012E-8
916.000000	0.032804	-1.260891E-8
919.000000	0.030680	-1.223041E-8
922.000000	0.028120	-1.127638E-8
925.000000	0.026218	-1.000189E-8
928.000000	0.024426	-9.703730E-9
931.000000	0.022449	-8.238851E-9
934.000000	0.020891	-8.124350E-9
937.000000	0.019180	-7.260018E-9
940.000000	0.017597	-6.190541E-9
943.000000	0.016139	-5.777852E-9
946.000000	0.014730	-4.979765E-9
949.000000	0.013505	-4.812202E-9
952.000000	0.012299	-4.157650E-9
955.000000	0.011362	-3.633322E-9
958.000000	0.010351	-3.208301E-9
961.000000	0.009345	-2.778868E-9
964.000000	0.008551	-2.535024E-9
967.000000	0.007722	-2.177047E-9
970.000000	0.007032	-1.951435E-9
973.000000	0.006376	-1.694012E-9
976.000000	0.005819	-1.485519E-9
979.000000	0.005294	-1.248138E-9
982.000000	0.004817	-1.044760E-9
985.000000	0.004350	-9.230051E-10
988.000000	0.003925	-8.143419E-10
991.000000	0.003528	-7.169409E-10
994.000000	0.003232	-6.121201E-10
997.000000	0.002955	-5.417429E-10
1000.000000	0.002668	-4.914851E-10
1003.000000	0.002393	-4.376435E-10
1006.000000	0.002160	-3.839426E-10
1009.000000	0.001957	-3.342244E-10
1012.000000	0.001786	-3.112012E-10
1015.000000	0.001619	-2.866828E-10
1018.000000	0.001488	-2.640704E-10
1021.000000	0.001335	-2.424725E-10
1024.000000	0.001204	-2.263300E-10
1027.000000	0.001076	-2.211976E-10
1030.000000	0.000956	-2.116657E-10
1033.000000	0.000860	-1.989898E-10
1036.000000	0.000790	-2.034945E-10
1039.000000	0.000691	-2.017878E-10
1042.000000	0.000626	-1.635901E-10
1045.000000	0.000597	-1.303957E-10
1048.000000	0.000557	-1.186406E-10
1051.000000	0.000504	-1.096897E-10
1054.000000	0.000448	-1.111561E-10
1057.000000	0.000396	-1.107983E-10
1060.000000	0.000354	-1.119186E-10
1063.000000	0.000310	-1.191687E-10
1066.000000	0.000273	-1.366368E-10
1069.000000	0.000226	-2.414342E-10
1072.000000	0.000180	-3.924012E-10
1075.000000	0.000187	-1.209752E-10
1078.000000	0.000196	-8.876073E-11
1081.000000	0.000198	-7.282343E-11
1084.000000	0.000189	-6.509236E-11
1087.000000	0.000183	-5.708567E-11
1090.000000	0.000179	-5.436400E-11
1093.000000	0.000168	-4.891467E-11
1096.000000	0.000159	-4.581758E-11
1099.000000	0.000150	-4.658011E-11
