Wavelength (nm)	EQE (%)	Current (A)	Dark Current (A) -> 	-105.108436000E-12	
400.000000	18.863738	-3.989877E-7
403.000000	20.803743	-1.000050E-6
406.000000	20.322166	-1.587581E-6
409.000000	21.135831	-2.324410E-6
412.000000	21.108910	-3.555971E-6
415.000000	19.726969	-1.586956E-6
418.000000	22.648025	-1.579883E-6
421.000000	21.259238	-1.743640E-6
424.000000	21.587546	-1.600794E-6
427.000000	21.578669	-2.091032E-6
430.000000	21.267286	-3.287720E-6
433.000000	20.605901	-2.985204E-6
436.000000	20.315043	-2.917675E-6
439.000000	20.226672	-3.186938E-6
442.000000	20.240747	-3.348926E-6
445.000000	20.068292	-3.772584E-6
448.000000	20.130599	-4.296218E-6
451.000000	19.131682	-3.597736E-6
454.000000	20.488353	-3.546799E-6
457.000000	20.408026	-3.944265E-6
460.000000	21.589601	-3.068185E-6
463.000000	20.870867	-5.099819E-6
466.000000	22.784641	-4.384967E-6
469.000000	22.868503	-4.050007E-6
472.000000	23.616076	-3.869811E-6
475.000000	23.249427	-3.613374E-6
478.000000	23.728560	-4.733966E-6
481.000000	26.009778	-4.320904E-6
484.000000	25.802647	-4.133784E-6
487.000000	25.955562	-5.743151E-6
490.000000	26.631557	-4.849951E-6
493.000000	26.573883	-4.920474E-6
496.000000	26.779829	-5.965874E-6
499.000000	27.642776	-6.137347E-6
502.000000	28.575944	-5.763665E-6
505.000000	28.834381	-7.082357E-6
508.000000	28.907810	-9.163831E-6
511.000000	28.734641	-1.047199E-5
514.000000	28.614596	-6.683243E-6
517.000000	29.883357	-6.874869E-6
520.000000	29.625353	-1.172938E-5
523.000000	29.056613	-1.048031E-5
526.000000	30.152637	-6.452109E-6
529.000000	31.231224	-8.846343E-6
532.000000	30.301988	-9.326668E-6
535.000000	29.775405	-4.266575E-6
538.000000	32.509170	-8.138701E-6
541.000000	31.444131	-1.056096E-5
544.000000	31.259198	-4.761213E-6
547.000000	31.869781	-9.028386E-6
550.000000	32.021867	-8.210064E-6
553.000000	32.227906	-5.965943E-6
556.000000	32.307718	-8.113097E-6
559.000000	32.473555	-5.650624E-6
562.000000	32.605466	-7.268473E-6
565.000000	32.927253	-6.876472E-6
568.000000	33.035484	-6.807927E-6
571.000000	33.158871	-8.120379E-6
574.000000	33.074324	-7.485198E-6
577.000000	33.133108	-1.116022E-5
580.000000	33.125110	-7.929426E-6
583.000000	33.136118	-8.412927E-6
586.000000	33.725018	-1.111512E-5
589.000000	33.984085	-7.720508E-6
592.000000	31.471768	-4.113264E-6
595.000000	31.488239	-4.920290E-6
598.000000	31.605940	-3.921416E-6
601.000000	32.419323	-5.497370E-6
604.000000	33.027008	-5.798236E-6
607.000000	32.801223	-6.173385E-6
610.000000	32.196268	-6.182158E-6
613.000000	32.432904	-1.060750E-5
616.000000	31.340002	-1.300230E-5
619.000000	31.508954	-7.505624E-6
622.000000	33.444793	-1.582556E-5
625.000000	29.802684	-1.693637E-5
628.000000	32.331063	-9.533789E-6
631.000000	33.313738	-1.186845E-5
634.000000	32.958762	-1.435003E-5
637.000000	32.453049	-1.812066E-5
640.000000	32.193266	-1.774104E-5
643.000000	32.713688	-1.713913E-5
646.000000	32.720829	-2.044179E-5
649.000000	32.525157	-1.971028E-5
652.000000	32.652990	-2.476048E-5
655.000000	32.069628	-2.236075E-5
658.000000	32.593612	-2.460122E-5
661.000000	31.538722	-2.853223E-5
664.000000	31.839918	-2.546419E-5
667.000000	32.422213	-2.925503E-5
670.000000	32.352969	-2.928143E-5
673.000000	32.790708	-3.101044E-5
676.000000	32.624113	-3.264179E-5
679.000000	33.135450	-3.295489E-5
682.000000	33.677247	-3.409455E-5
685.000000	33.913032	-3.636518E-5
688.000000	33.953326	-3.616324E-5
691.000000	34.421990	-3.706740E-5
694.000000	34.355936	-3.561581E-5
697.000000	34.944149	-3.539383E-5
700.000000	34.696343	-3.867284E-5
703.000000	33.838113	-3.832509E-5
706.000000	32.950793	-3.846927E-5
709.000000	32.349647	-3.650849E-5
712.000000	31.037496	-3.992577E-5
715.000000	30.381717	-3.394488E-5
718.000000	29.377222	-3.109622E-5
721.000000	27.773494	-3.643178E-5
724.000000	26.837950	-2.747422E-5
727.000000	25.721741	-2.969642E-5
730.000000	24.012692	-2.450780E-5
733.000000	22.906162	-2.277635E-5
736.000000	20.959718	-2.108060E-5
739.000000	19.423227	-1.631677E-5
742.000000	17.695749	-1.683956E-5
745.000000	15.655203	-1.213723E-5
748.000000	14.199049	-1.164803E-5
751.000000	12.171363	-9.614261E-6
754.000000	10.603524	-7.300633E-6
757.000000	9.115307	-7.160125E-6
760.000000	7.577234	-4.829043E-6
763.000000	6.408260	-4.463600E-6
766.000000	5.274143	-3.342605E-6
769.000000	4.385198	-2.496438E-6
772.000000	3.553391	-2.241708E-6
775.000000	2.853078	-1.534493E-6
778.000000	2.362489	-1.397894E-6
781.000000	1.895616	-1.063785E-6
784.000000	1.545330	-8.177179E-7
787.000000	1.246830	-7.180931E-7
790.000000	1.003110	-5.256987E-7
793.000000	0.828381	-4.866125E-7
796.000000	0.668226	-3.722669E-7
799.000000	0.555500	-3.105676E-7
802.000000	0.458241	-2.728155E-7
805.000000	0.384398	-2.123915E-7
808.000000	0.323629	-1.973207E-7
811.000000	0.274584	-1.522377E-7
814.000000	0.237307	-1.396853E-7
817.000000	0.202942	-1.194356E-7
820.000000	0.177444	-1.019261E-7
823.000000	0.157730	-1.010409E-7
826.000000	0.139175	-8.027146E-8
829.000000	0.125412	-8.238987E-8
832.000000	0.110491	-6.877947E-8
835.000000	0.099384	-6.718756E-8
838.000000	0.089141	-6.095144E-8
841.000000	0.082097	-5.261922E-8
844.000000	0.075111	-5.257537E-8
847.000000	0.068771	-4.513269E-8
850.000000	0.063675	-4.546419E-8
853.000000	0.058527	-3.904231E-8
856.000000	0.054567	-3.668548E-8
859.000000	0.050573	-3.425002E-8
862.000000	0.047276	-2.925979E-8
865.000000	0.044102	-2.733522E-8
868.000000	0.041473	-2.392200E-8
871.000000	0.039102	-2.201952E-8
874.000000	0.036853	-1.909998E-8
877.000000	0.034103	-1.679940E-8
880.000000	0.032168	-1.559169E-8
883.000000	0.030242	-1.373464E-8
886.000000	0.028501	-1.277013E-8
889.000000	0.026568	-1.142967E-8
892.000000	0.024961	-1.036073E-8
895.000000	0.023523	-9.392262E-9
898.000000	0.022013	-8.726759E-9
901.000000	0.020584	-7.926943E-9
904.000000	0.019372	-7.781430E-9
907.000000	0.017933	-7.055865E-9
910.000000	0.016934	-6.556607E-9
913.000000	0.015730	-6.390124E-9
916.000000	0.014619	-5.618988E-9
919.000000	0.013676	-5.451997E-9
922.000000	0.012573	-5.042033E-9
925.000000	0.011676	-4.454455E-9
928.000000	0.010910	-4.334148E-9
931.000000	0.010037	-3.683430E-9
934.000000	0.009214	-3.583401E-9
937.000000	0.008503	-3.218678E-9
940.000000	0.007903	-2.780062E-9
943.000000	0.007280	-2.606177E-9
946.000000	0.006615	-2.236465E-9
949.000000	0.006081	-2.167055E-9
952.000000	0.005548	-1.875433E-9
955.000000	0.005129	-1.640187E-9
958.000000	0.004717	-1.462168E-9
961.000000	0.004272	-1.270422E-9
964.000000	0.003928	-1.164540E-9
967.000000	0.003564	-1.004809E-9
970.000000	0.003260	-9.048098E-10
973.000000	0.002991	-7.945805E-10
976.000000	0.002737	-6.988108E-10
979.000000	0.002550	-6.012456E-10
982.000000	0.002365	-5.129134E-10
985.000000	0.002168	-4.600160E-10
988.000000	0.001988	-4.124857E-10
991.000000	0.001821	-3.700645E-10
994.000000	0.001724	-3.264410E-10
997.000000	0.001586	-2.906423E-10
1000.000000	0.001497	-2.758138E-10
1003.000000	0.001375	-2.514299E-10
1006.000000	0.001263	-2.245824E-10
1009.000000	0.001221	-2.085160E-10
1012.000000	0.001120	-1.951245E-10
1015.000000	0.001025	-1.815042E-10
1018.000000	0.001005	-1.782840E-10
1021.000000	0.000923	-1.677020E-10
1024.000000	0.000856	-1.609270E-10
1027.000000	0.000757	-1.555598E-10
1030.000000	0.000679	-1.504157E-10
1033.000000	0.000634	-1.466263E-10
1036.000000	0.000560	-1.443447E-10
1039.000000	0.000483	-1.410774E-10
1042.000000	0.000497	-1.300147E-10
1045.000000	0.000529	-1.154910E-10
1048.000000	0.000517	-1.100653E-10
1051.000000	0.000482	-1.049855E-10
1054.000000	0.000417	-1.033431E-10
1057.000000	0.000374	-1.045866E-10
1060.000000	0.000333	-1.052025E-10
1063.000000	0.000286	-1.099890E-10
1066.000000	0.000225	-1.126344E-10
1069.000000	0.000145	-1.551787E-10
1072.000000	9.686299E-5	-2.115310E-10
1075.000000	0.000167	-1.081003E-10
1078.000000	0.000218	-9.867385E-11
1081.000000	0.000243	-8.957617E-11
1084.000000	0.000254	-8.737645E-11
1087.000000	0.000274	-8.547599E-11
1090.000000	0.000264	-8.040796E-11
1093.000000	0.000267	-7.787979E-11
1096.000000	0.000272	-7.817311E-11
1099.000000	0.000243	-7.514633E-11
