Wavelength (nm)	EQE (%)	Current (A)	Dark Current (A) -> 	-800.698980000E-12	
400.000000	6.800994	-1.438481E-7
403.000000	7.522546	-3.616139E-7
406.000000	7.341395	-5.735146E-7
409.000000	7.632216	-8.393519E-7
412.000000	7.630138	-1.285360E-6
415.000000	7.245043	-5.828348E-7
418.000000	8.156480	-5.689805E-7
421.000000	7.773070	-6.375316E-7
424.000000	7.892611	-5.852654E-7
427.000000	7.960988	-7.714415E-7
430.000000	7.967185	-1.231651E-6
433.000000	7.787815	-1.128231E-6
436.000000	7.804679	-1.120919E-6
439.000000	7.727932	-1.217622E-6
442.000000	7.695256	-1.273216E-6
445.000000	7.477484	-1.405672E-6
448.000000	7.223501	-1.541620E-6
451.000000	6.735202	-1.266563E-6
454.000000	6.963876	-1.205537E-6
457.000000	6.618985	-1.279253E-6
460.000000	6.798701	-9.661907E-7
463.000000	6.559046	-1.602710E-6
466.000000	6.917521	-1.331296E-6
469.000000	6.857354	-1.214436E-6
472.000000	6.866023	-1.125090E-6
475.000000	6.713383	-1.043379E-6
478.000000	6.847879	-1.366186E-6
481.000000	7.456424	-1.238707E-6
484.000000	7.054153	-1.130130E-6
487.000000	6.997075	-1.548233E-6
490.000000	7.123854	-1.297346E-6
493.000000	6.885424	-1.274919E-6
496.000000	6.873130	-1.531161E-6
499.000000	6.936251	-1.540011E-6
502.000000	6.828134	-1.377210E-6
505.000000	6.983781	-1.715370E-6
508.000000	6.857082	-2.173708E-6
511.000000	6.839128	-2.492437E-6
514.000000	6.714659	-1.568280E-6
517.000000	6.913185	-1.590425E-6
520.000000	6.939920	-2.747679E-6
523.000000	6.776919	-2.444339E-6
526.000000	6.825494	-1.460530E-6
529.000000	7.004522	-1.984053E-6
532.000000	6.932004	-2.133606E-6
535.000000	6.643782	-9.520003E-7
538.000000	6.952137	-1.740474E-6
541.000000	6.849261	-2.300422E-6
544.000000	6.832301	-1.040655E-6
547.000000	6.968357	-1.974065E-6
550.000000	6.909434	-1.771505E-6
553.000000	6.954455	-1.287390E-6
556.000000	7.058186	-1.772448E-6
559.000000	7.110550	-1.237285E-6
562.000000	7.069273	-1.575896E-6
565.000000	7.083097	-1.479222E-6
568.000000	7.060343	-1.454990E-6
571.000000	7.093152	-1.737064E-6
574.000000	6.985073	-1.580823E-6
577.000000	6.972312	-2.348483E-6
580.000000	6.936399	-1.660422E-6
583.000000	6.891809	-1.749761E-6
586.000000	7.030254	-2.317037E-6
589.000000	7.068814	-1.605894E-6
592.000000	6.646470	-8.686733E-7
595.000000	6.700270	-1.046971E-6
598.000000	6.817170	-8.458207E-7
601.000000	6.878773	-1.166439E-6
604.000000	6.822032	-1.197679E-6
607.000000	6.838328	-1.287014E-6
610.000000	6.949914	-1.334486E-6
613.000000	7.081885	-2.316200E-6
616.000000	6.903263	-2.864017E-6
619.000000	7.043271	-1.677750E-6
622.000000	7.568024	-3.581072E-6
625.000000	7.046694	-4.004519E-6
628.000000	7.147120	-2.107544E-6
631.000000	7.489592	-2.668264E-6
634.000000	7.399895	-3.221866E-6
637.000000	7.318906	-4.086624E-6
640.000000	7.307343	-4.026925E-6
643.000000	7.467553	-3.912349E-6
646.000000	7.506281	-4.689423E-6
649.000000	7.582792	-4.595180E-6
652.000000	7.660112	-5.808597E-6
655.000000	7.641866	-5.328339E-6
658.000000	7.913032	-5.972650E-6
661.000000	7.831895	-7.085304E-6
664.000000	8.005973	-6.402831E-6
667.000000	8.199045	-7.398116E-6
670.000000	8.298071	-7.510265E-6
673.000000	8.444081	-7.985636E-6
676.000000	8.447327	-8.451904E-6
679.000000	8.512291	-8.465906E-6
682.000000	8.587874	-8.694288E-6
685.000000	8.644599	-9.269664E-6
688.000000	8.649830	-9.212820E-6
691.000000	8.701762	-9.370513E-6
694.000000	8.669814	-8.987747E-6
697.000000	8.808075	-8.921422E-6
700.000000	8.847869	-9.861910E-6
703.000000	8.791105	-9.956817E-6
706.000000	8.654514	-1.010394E-5
709.000000	8.675343	-9.790638E-6
712.000000	8.645453	-1.112127E-5
715.000000	8.846363	-9.883863E-6
718.000000	8.947064	-9.470598E-6
721.000000	8.971323	-1.176810E-5
724.000000	9.132743	-9.349261E-6
727.000000	9.408865	-1.086278E-5
730.000000	9.499185	-9.695045E-6
733.000000	9.884408	-9.828392E-6
736.000000	9.869082	-9.926001E-6
739.000000	10.041550	-8.435553E-6
742.000000	10.174059	-9.681798E-6
745.000000	10.107687	-7.836329E-6
748.000000	10.271615	-8.426204E-6
751.000000	9.965319	-7.871688E-6
754.000000	9.847854	-6.780347E-6
757.000000	9.617944	-7.554949E-6
760.000000	9.027155	-5.753092E-6
763.000000	8.723833	-6.076486E-6
766.000000	8.078962	-5.120221E-6
769.000000	7.552265	-4.299409E-6
772.000000	6.845072	-4.318313E-6
775.000000	6.099320	-3.280445E-6
778.000000	5.499900	-3.254312E-6
781.000000	4.760171	-2.671321E-6
784.000000	4.147098	-2.194455E-6
787.000000	3.494813	-2.012785E-6
790.000000	2.896822	-1.518134E-6
793.000000	2.402605	-1.411353E-6
796.000000	1.927377	-1.073736E-6
799.000000	1.553330	-8.684320E-7
802.000000	1.229652	-7.320775E-7
805.000000	0.968663	-5.352156E-7
808.000000	0.760768	-4.638498E-7
811.000000	0.598468	-3.318090E-7
814.000000	0.468746	-2.759171E-7
817.000000	0.363702	-2.140459E-7
820.000000	0.287434	-1.651062E-7
823.000000	0.227626	-1.458154E-7
826.000000	0.180247	-1.039601E-7
829.000000	0.144347	-9.482909E-8
832.000000	0.114495	-7.127161E-8
835.000000	0.092764	-6.271183E-8
838.000000	0.075267	-5.146457E-8
841.000000	0.062458	-4.003181E-8
844.000000	0.051960	-3.637054E-8
847.000000	0.043211	-2.835847E-8
850.000000	0.036469	-2.603917E-8
853.000000	0.030526	-2.036335E-8
856.000000	0.025889	-1.740543E-8
859.000000	0.022061	-1.494053E-8
862.000000	0.018858	-1.167130E-8
865.000000	0.016094	-9.975261E-9
868.000000	0.013783	-7.950177E-9
871.000000	0.011952	-6.730514E-9
874.000000	0.010263	-5.319170E-9
877.000000	0.008781	-4.325437E-9
880.000000	0.007635	-3.700875E-9
883.000000	0.006642	-3.016546E-9
886.000000	0.005810	-2.603333E-9
889.000000	0.005093	-2.191047E-9
892.000000	0.004549	-1.888156E-9
895.000000	0.004081	-1.629448E-9
898.000000	0.003669	-1.454619E-9
901.000000	0.003366	-1.296226E-9
904.000000	0.002964	-1.190678E-9
907.000000	0.002720	-1.070077E-9
910.000000	0.002543	-9.846020E-10
913.000000	0.002303	-9.355233E-10
916.000000	0.002215	-8.512383E-10
919.000000	0.002035	-8.112927E-10
922.000000	0.001874	-7.514382E-10
925.000000	0.001890	-7.208839E-10
928.000000	0.001765	-7.012101E-10
931.000000	0.001766	-6.480302E-10
934.000000	0.001615	-6.280404E-10
937.000000	0.001593	-6.030232E-10
940.000000	0.001660	-5.841179E-10
943.000000	0.001601	-5.730195E-10
946.000000	0.001588	-5.369104E-10
949.000000	0.001495	-5.326338E-10
952.000000	0.001543	-5.217121E-10
955.000000	0.001599	-5.111949E-10
958.000000	0.001594	-4.941078E-10
961.000000	0.001655	-4.921077E-10
964.000000	0.001644	-4.872622E-10
967.000000	0.001659	-4.677235E-10
970.000000	0.001646	-4.566667E-10
973.000000	0.001642	-4.363418E-10
976.000000	0.001728	-4.412163E-10
979.000000	0.001899	-4.476452E-10
982.000000	0.002014	-4.368286E-10
985.000000	0.001999	-4.240940E-10
988.000000	0.002043	-4.237834E-10
991.000000	0.002102	-4.271032E-10
994.000000	0.002267	-4.293378E-10
997.000000	0.002352	-4.311327E-10
1000.000000	0.002367	-4.360424E-10
1003.000000	0.002240	-4.097405E-10
1006.000000	0.002420	-4.301238E-10
1009.000000	0.002452	-4.188386E-10
1012.000000	0.002524	-4.398204E-10
1015.000000	0.002385	-4.224458E-10
1018.000000	0.002421	-4.294908E-10
1021.000000	0.002343	-4.256781E-10
1024.000000	0.002275	-4.276548E-10
1027.000000	0.001942	-3.992645E-10
1030.000000	0.001885	-4.174599E-10
1033.000000	0.001777	-4.113303E-10
1036.000000	0.001607	-4.141043E-10
1039.000000	0.001409	-4.114825E-10
1042.000000	0.001631	-4.266340E-10
1045.000000	0.001921	-4.193192E-10
1048.000000	0.001913	-4.076232E-10
1051.000000	0.001877	-4.086494E-10
1054.000000	0.001598	-3.961086E-10
1057.000000	0.001464	-4.091249E-10
1060.000000	0.001282	-4.055700E-10
1063.000000	0.001075	-4.128612E-10
1066.000000	0.000832	-4.162455E-10
1069.000000	0.000398	-4.253731E-10
1072.000000	0.000201	-4.382718E-10
1075.000000	0.000617	-3.999861E-10
1078.000000	0.000934	-4.227453E-10
1081.000000	0.001129	-4.162866E-10
1084.000000	0.001165	-4.008069E-10
1087.000000	0.001214	-3.791389E-10
1090.000000	0.001307	-3.979211E-10
1093.000000	0.001334	-3.891285E-10
1096.000000	0.001418	-4.078636E-10
1099.000000	0.001253	-3.881665E-10
