Wavelength (nm)	EQE (%)	Current (A)	Dark Current (A) -> 	-39.019131600E-12	
400.000000	30.822624	-6.519306E-7
403.000000	32.591199	-1.566681E-6
406.000000	30.043091	-2.346986E-6
409.000000	29.936297	-3.292240E-6
412.000000	28.038566	-4.723329E-6
415.000000	28.107745	-2.261156E-6
418.000000	31.371659	-2.188427E-6
421.000000	29.396331	-2.411028E-6
424.000000	29.574159	-2.193030E-6
427.000000	29.243603	-2.833785E-6
430.000000	27.555396	-4.259802E-6
433.000000	27.073613	-3.922190E-6
436.000000	27.073478	-3.888331E-6
439.000000	26.459420	-4.168977E-6
442.000000	26.091256	-4.316920E-6
445.000000	25.360097	-4.767376E-6
448.000000	25.043041	-5.344618E-6
451.000000	24.237892	-4.557965E-6
454.000000	25.439427	-4.403894E-6
457.000000	24.701925	-4.774148E-6
460.000000	26.361713	-3.746369E-6
463.000000	24.180150	-5.908446E-6
466.000000	26.398775	-5.080517E-6
469.000000	26.428891	-4.680551E-6
472.000000	26.403891	-4.326632E-6
475.000000	25.986077	-4.038698E-6
478.000000	25.752910	-5.137834E-6
481.000000	27.744887	-4.609151E-6
484.000000	27.168411	-4.352590E-6
487.000000	26.406982	-5.843036E-6
490.000000	27.405406	-4.990879E-6
493.000000	27.060122	-5.010507E-6
496.000000	26.626998	-5.931827E-6
499.000000	27.653000	-6.139617E-6
502.000000	28.224361	-5.692752E-6
505.000000	28.245382	-6.937686E-6
508.000000	26.221634	-8.312308E-6
511.000000	25.838460	-9.416512E-6
514.000000	27.440263	-6.408965E-6
517.000000	28.224445	-6.493225E-6
520.000000	26.180523	-1.036549E-5
523.000000	25.766213	-9.293509E-6
526.000000	28.444747	-6.086652E-6
529.000000	28.161493	-7.976832E-6
532.000000	27.226086	-8.379934E-6
535.000000	28.754594	-4.120301E-6
538.000000	28.939081	-7.244926E-6
541.000000	27.126479	-9.110815E-6
544.000000	29.284166	-4.460388E-6
547.000000	27.891548	-7.901393E-6
550.000000	27.927613	-7.160341E-6
553.000000	29.507712	-5.462388E-6
556.000000	28.584590	-7.178147E-6
559.000000	29.937478	-5.209329E-6
562.000000	29.312084	-6.534306E-6
565.000000	29.640787	-6.190132E-6
568.000000	29.632094	-6.106559E-6
571.000000	29.250970	-7.163361E-6
574.000000	29.314644	-6.634328E-6
577.000000	27.688623	-9.326355E-6
580.000000	28.758353	-6.884120E-6
583.000000	28.586706	-7.257877E-6
586.000000	27.934569	-9.206699E-6
589.000000	29.515886	-6.705422E-6
592.000000	28.881784	-3.774761E-6
595.000000	28.040064	-4.381485E-6
598.000000	28.417061	-3.525765E-6
601.000000	28.429573	-4.820825E-6
604.000000	28.051542	-4.924741E-6
607.000000	27.828075	-5.237409E-6
610.000000	27.802980	-5.338582E-6
613.000000	26.698439	-8.731987E-6
616.000000	24.734433	-1.026179E-5
619.000000	27.449355	-6.538603E-6
622.000000	26.354156	-1.247038E-5
625.000000	24.060865	-1.367339E-5
628.000000	26.495207	-7.812911E-6
631.000000	27.094868	-9.652897E-6
634.000000	25.827328	-1.124505E-5
637.000000	24.942878	-1.392724E-5
640.000000	24.625243	-1.357046E-5
643.000000	25.760760	-1.349640E-5
646.000000	25.123699	-1.569561E-5
649.000000	25.508057	-1.545791E-5
652.000000	24.467706	-1.855365E-5
655.000000	24.573274	-1.713387E-5
658.000000	24.938163	-1.882299E-5
661.000000	23.862114	-2.158741E-5
664.000000	24.589638	-1.966573E-5
667.000000	24.441469	-2.205389E-5
670.000000	24.431243	-2.211178E-5
673.000000	24.438998	-2.311216E-5
676.000000	23.921978	-2.393494E-5
679.000000	24.387160	-2.425427E-5
682.000000	24.441381	-2.474424E-5
685.000000	24.360991	-2.612246E-5
688.000000	24.447819	-2.603905E-5
691.000000	24.461692	-2.634163E-5
694.000000	24.752236	-2.565993E-5
697.000000	25.197366	-2.552162E-5
700.000000	24.836370	-2.768283E-5
703.000000	24.462925	-2.770674E-5
706.000000	23.994946	-2.801353E-5
709.000000	24.087422	-2.718408E-5
712.000000	23.345523	-3.003103E-5
715.000000	23.938085	-2.674554E-5
718.000000	23.770308	-2.516122E-5
721.000000	22.437043	-2.943171E-5
724.000000	22.622079	-2.315840E-5
727.000000	21.992982	-2.539147E-5
730.000000	21.290539	-2.172952E-5
733.000000	20.803315	-2.068542E-5
736.000000	19.307228	-1.941858E-5
739.000000	18.396842	-1.545454E-5
742.000000	16.943261	-1.612348E-5
745.000000	15.417767	-1.195315E-5
748.000000	14.141743	-1.160102E-5
751.000000	12.319013	-9.730891E-6
754.000000	10.900826	-7.505329E-6
757.000000	9.450419	-7.423357E-6
760.000000	7.978072	-5.084501E-6
763.000000	6.861972	-4.779628E-6
766.000000	5.712648	-3.620517E-6
769.000000	4.825112	-2.746875E-6
772.000000	3.961746	-2.499325E-6
775.000000	3.239361	-1.742251E-6
778.000000	2.714790	-1.606352E-6
781.000000	2.203037	-1.236304E-6
784.000000	1.823475	-9.648995E-7
787.000000	1.506470	-8.676286E-7
790.000000	1.235892	-6.476927E-7
793.000000	1.036949	-6.091313E-7
796.000000	0.855662	-4.766869E-7
799.000000	0.731110	-4.087474E-7
802.000000	0.615195	-3.662587E-7
805.000000	0.528498	-2.920108E-7
808.000000	0.456126	-2.781055E-7
811.000000	0.394965	-2.189806E-7
814.000000	0.352160	-2.072913E-7
817.000000	0.307113	-1.807421E-7
820.000000	0.276905	-1.590578E-7
823.000000	0.248679	-1.593023E-7
826.000000	0.224215	-1.293192E-7
829.000000	0.206500	-1.356606E-7
832.000000	0.183651	-1.143204E-7
835.000000	0.169488	-1.145805E-7
838.000000	0.153930	-1.052516E-7
841.000000	0.143304	-9.184922E-8
844.000000	0.132877	-9.301002E-8
847.000000	0.123431	-8.100503E-8
850.000000	0.115945	-8.278558E-8
853.000000	0.107911	-7.198545E-8
856.000000	0.100858	-6.780697E-8
859.000000	0.095089	-6.439804E-8
862.000000	0.089289	-5.526185E-8
865.000000	0.084566	-5.241584E-8
868.000000	0.079426	-4.581350E-8
871.000000	0.075422	-4.247206E-8
874.000000	0.071299	-3.695282E-8
877.000000	0.066364	-3.269124E-8
880.000000	0.062664	-3.037322E-8
883.000000	0.059021	-2.680500E-8
886.000000	0.056093	-2.513326E-8
889.000000	0.052406	-2.254564E-8
892.000000	0.049571	-2.057563E-8
895.000000	0.046676	-1.863724E-8
898.000000	0.043747	-1.734291E-8
901.000000	0.041100	-1.582806E-8
904.000000	0.038926	-1.563567E-8
907.000000	0.035818	-1.409310E-8
910.000000	0.033865	-1.311191E-8
913.000000	0.031611	-1.284164E-8
916.000000	0.029624	-1.138664E-8
919.000000	0.027670	-1.103065E-8
922.000000	0.025529	-1.023740E-8
925.000000	0.023706	-9.043823E-9
928.000000	0.022141	-8.796094E-9
931.000000	0.020425	-7.496129E-9
934.000000	0.019199	-7.466249E-9
937.000000	0.017495	-6.622154E-9
940.000000	0.016206	-5.701117E-9
943.000000	0.014939	-5.348221E-9
946.000000	0.013577	-4.590027E-9
949.000000	0.012533	-4.466080E-9
952.000000	0.011496	-3.886217E-9
955.000000	0.010556	-3.375426E-9
958.000000	0.009744	-3.020298E-9
961.000000	0.008827	-2.624916E-9
964.000000	0.008069	-2.392352E-9
967.000000	0.007333	-2.067355E-9
970.000000	0.006717	-1.863906E-9
973.000000	0.006110	-1.623229E-9
976.000000	0.005549	-1.416520E-9
979.000000	0.005110	-1.204696E-9
982.000000	0.004649	-1.008393E-9
985.000000	0.004209	-8.930195E-10
988.000000	0.003829	-7.944047E-10
991.000000	0.003462	-7.034555E-10
994.000000	0.003180	-6.023069E-10
997.000000	0.002923	-5.357662E-10
1000.000000	0.002632	-4.848163E-10
1003.000000	0.002382	-4.357139E-10
1006.000000	0.002172	-3.861655E-10
1009.000000	0.001982	-3.385537E-10
1012.000000	0.001814	-3.161230E-10
1015.000000	0.001650	-2.922022E-10
1018.000000	0.001521	-2.697892E-10
1021.000000	0.001371	-2.489835E-10
1024.000000	0.001245	-2.340552E-10
1027.000000	0.001116	-2.294800E-10
1030.000000	0.000997	-2.207929E-10
1033.000000	0.000893	-2.066446E-10
1036.000000	0.000814	-2.097711E-10
1039.000000	0.000729	-2.129093E-10
1042.000000	0.000652	-1.704588E-10
1045.000000	0.000633	-1.382030E-10
1048.000000	0.000594	-1.265538E-10
1051.000000	0.000545	-1.186994E-10
1054.000000	0.000475	-1.177140E-10
1057.000000	0.000421	-1.176788E-10
1060.000000	0.000373	-1.180367E-10
1063.000000	0.000329	-1.265067E-10
1066.000000	0.000289	-1.444089E-10
1069.000000	0.000243	-2.595595E-10
1072.000000	0.000189	-4.133945E-10
1075.000000	0.000201	-1.306421E-10
1078.000000	0.000215	-9.713701E-11
1081.000000	0.000217	-8.004408E-11
1084.000000	0.000211	-7.276485E-11
1087.000000	0.000208	-6.508066E-11
1090.000000	0.000194	-5.912112E-11
1093.000000	0.000197	-5.754322E-11
1096.000000	0.000185	-5.310869E-11
1099.000000	0.000165	-5.102046E-11
