Wavelength (nm)	EQE (%)	Current (A)	Dark Current (A) -> 	-31.201048000E-12	
400.000000	27.765659	-5.872726E-7
403.000000	30.129428	-1.448342E-6
406.000000	28.482185	-2.225047E-6
409.000000	29.029926	-3.192562E-6
412.000000	28.223092	-4.754414E-6
415.000000	27.112332	-2.181079E-6
418.000000	30.465929	-2.125245E-6
421.000000	28.919082	-2.371885E-6
424.000000	29.120587	-2.159396E-6
427.000000	29.030606	-2.813145E-6
430.000000	28.315799	-4.377353E-6
433.000000	27.384683	-3.967255E-6
436.000000	27.292178	-3.919741E-6
439.000000	26.891189	-4.237007E-6
442.000000	26.663618	-4.411620E-6
445.000000	26.108238	-4.908017E-6
448.000000	25.696736	-5.484128E-6
451.000000	24.683685	-4.641797E-6
454.000000	25.904684	-4.484436E-6
457.000000	25.426465	-4.914180E-6
460.000000	26.225209	-3.726970E-6
463.000000	25.251105	-6.170135E-6
466.000000	26.825679	-5.162676E-6
469.000000	26.987604	-4.779499E-6
472.000000	26.881301	-4.404862E-6
475.000000	26.189644	-4.070336E-6
478.000000	26.719502	-5.330674E-6
481.000000	28.396705	-4.717435E-6
484.000000	28.092242	-4.500595E-6
487.000000	27.704848	-6.130213E-6
490.000000	28.388900	-5.169986E-6
493.000000	28.435841	-5.265238E-6
496.000000	28.598733	-6.371080E-6
499.000000	29.135456	-6.468757E-6
502.000000	29.724199	-5.995264E-6
505.000000	29.740277	-7.304865E-6
508.000000	29.364495	-9.308601E-6
511.000000	28.925593	-1.054158E-5
514.000000	29.813921	-6.963358E-6
517.000000	30.331334	-6.977929E-6
520.000000	29.796674	-1.179721E-5
523.000000	29.534924	-1.065283E-5
526.000000	30.755965	-6.581210E-6
529.000000	30.796920	-8.723325E-6
532.000000	31.128206	-9.580970E-6
535.000000	31.412832	-4.501205E-6
538.000000	31.320263	-7.841057E-6
541.000000	30.706482	-1.031321E-5
544.000000	31.756323	-4.836932E-6
547.000000	31.442836	-8.907437E-6
550.000000	31.419248	-8.055559E-6
553.000000	31.687055	-5.865822E-6
556.000000	31.465294	-7.901548E-6
559.000000	32.659841	-5.683039E-6
562.000000	31.716935	-7.070400E-6
565.000000	32.324131	-6.750517E-6
568.000000	31.774324	-6.548028E-6
571.000000	31.676293	-7.757306E-6
574.000000	31.812778	-7.199692E-6
577.000000	31.620505	-1.065073E-5
580.000000	32.448942	-7.767566E-6
583.000000	31.669952	-8.040682E-6
586.000000	32.461382	-1.069865E-5
589.000000	32.956715	-7.487110E-6
592.000000	31.644434	-4.135831E-6
595.000000	31.350511	-4.898769E-6
598.000000	31.244142	-3.876527E-6
601.000000	31.897977	-5.408965E-6
604.000000	31.575451	-5.543400E-6
607.000000	31.836577	-5.991833E-6
610.000000	31.665205	-6.080186E-6
613.000000	31.169343	-1.019424E-5
616.000000	29.629816	-1.229278E-5
619.000000	30.634623	-7.297353E-6
622.000000	31.056549	-1.469548E-5
625.000000	28.824862	-1.638069E-5
628.000000	30.885330	-9.107471E-6
631.000000	31.528821	-1.123255E-5
634.000000	30.735968	-1.338224E-5
637.000000	30.102026	-1.680793E-5
640.000000	29.923973	-1.649048E-5
643.000000	30.201859	-1.582315E-5
646.000000	30.047368	-1.877159E-5
649.000000	30.140508	-1.826518E-5
652.000000	29.781600	-2.258313E-5
655.000000	29.808178	-2.078394E-5
658.000000	30.271114	-2.284823E-5
661.000000	29.230087	-2.644367E-5
664.000000	29.974463	-2.397228E-5
667.000000	30.105770	-2.716487E-5
670.000000	29.997284	-2.714939E-5
673.000000	30.270046	-2.862663E-5
676.000000	30.018175	-3.003444E-5
679.000000	30.364109	-3.019865E-5
682.000000	30.556645	-3.093528E-5
685.000000	30.342124	-3.253607E-5
688.000000	30.354098	-3.232975E-5
691.000000	30.536360	-3.288315E-5
694.000000	30.654097	-3.177822E-5
697.000000	31.144160	-3.154494E-5
700.000000	30.816200	-3.434800E-5
703.000000	30.127567	-3.412252E-5
706.000000	29.333110	-3.424571E-5
709.000000	28.790197	-3.249144E-5
712.000000	27.796521	-3.575667E-5
715.000000	27.620538	-3.085987E-5
718.000000	27.155883	-2.874490E-5
721.000000	25.614746	-3.360005E-5
724.000000	25.278559	-2.587786E-5
727.000000	24.383010	-2.815082E-5
730.000000	23.274650	-2.375454E-5
733.000000	22.450560	-2.232333E-5
736.000000	20.897944	-2.101847E-5
739.000000	19.586120	-1.645361E-5
742.000000	18.023318	-1.715128E-5
745.000000	16.311491	-1.264604E-5
748.000000	14.890276	-1.221507E-5
751.000000	12.988938	-1.026007E-5
754.000000	11.498213	-7.916636E-6
757.000000	9.999431	-7.854609E-6
760.000000	8.449001	-5.384629E-6
763.000000	7.244449	-5.046038E-6
766.000000	6.083649	-3.855647E-6
769.000000	5.086516	-2.895689E-6
772.000000	4.204313	-2.652352E-6
775.000000	3.425713	-1.842478E-6
778.000000	2.842118	-1.681692E-6
781.000000	2.318315	-1.300996E-6
784.000000	1.906548	-1.008858E-6
787.000000	1.560417	-8.986988E-7
790.000000	1.275869	-6.686431E-7
793.000000	1.055079	-6.197810E-7
796.000000	0.866345	-4.826384E-7
799.000000	0.724971	-4.053149E-7
802.000000	0.605844	-3.606912E-7
805.000000	0.511893	-2.828362E-7
808.000000	0.436990	-2.664385E-7
811.000000	0.376018	-2.084759E-7
814.000000	0.327871	-1.929942E-7
817.000000	0.285611	-1.680879E-7
820.000000	0.252329	-1.449415E-7
823.000000	0.224990	-1.441270E-7
826.000000	0.201331	-1.161206E-7
829.000000	0.180925	-1.188593E-7
832.000000	0.160955	-1.001922E-7
835.000000	0.144987	-9.801678E-8
838.000000	0.131811	-9.012764E-8
841.000000	0.122221	-7.833619E-8
844.000000	0.112394	-7.867247E-8
847.000000	0.104418	-6.852725E-8
850.000000	0.096837	-6.914246E-8
853.000000	0.089462	-5.967804E-8
856.000000	0.083418	-5.608217E-8
859.000000	0.077414	-5.242784E-8
862.000000	0.073302	-4.536747E-8
865.000000	0.068911	-4.271215E-8
868.000000	0.064861	-3.741208E-8
871.000000	0.061295	-3.451689E-8
874.000000	0.058097	-3.011080E-8
877.000000	0.054547	-2.687004E-8
880.000000	0.051049	-2.474360E-8
883.000000	0.048682	-2.210960E-8
886.000000	0.045771	-2.050844E-8
889.000000	0.043091	-1.853797E-8
892.000000	0.040779	-1.692658E-8
895.000000	0.038314	-1.529810E-8
898.000000	0.036160	-1.433506E-8
901.000000	0.033904	-1.305691E-8
904.000000	0.031976	-1.284378E-8
907.000000	0.029801	-1.172529E-8
910.000000	0.028244	-1.093559E-8
913.000000	0.026234	-1.065710E-8
916.000000	0.024313	-9.345144E-9
919.000000	0.023003	-9.170218E-9
922.000000	0.021404	-8.583353E-9
925.000000	0.019985	-7.624258E-9
928.000000	0.018535	-7.363702E-9
931.000000	0.017262	-6.335243E-9
934.000000	0.016065	-6.247718E-9
937.000000	0.014891	-5.636663E-9
940.000000	0.013762	-4.841241E-9
943.000000	0.012769	-4.571411E-9
946.000000	0.011783	-3.983665E-9
949.000000	0.010870	-3.873390E-9
952.000000	0.009944	-3.361676E-9
955.000000	0.009195	-2.940201E-9
958.000000	0.008469	-2.624915E-9
961.000000	0.007766	-2.309308E-9
964.000000	0.007206	-2.136362E-9
967.000000	0.006565	-1.850776E-9
970.000000	0.006005	-1.666475E-9
973.000000	0.005539	-1.471683E-9
976.000000	0.005083	-1.297493E-9
979.000000	0.004675	-1.102241E-9
982.000000	0.004307	-9.341924E-10
985.000000	0.003940	-8.358645E-10
988.000000	0.003637	-7.545363E-10
991.000000	0.003350	-6.806272E-10
994.000000	0.003107	-5.884879E-10
997.000000	0.002875	-5.269855E-10
1000.000000	0.002627	-4.839720E-10
1003.000000	0.002430	-4.444134E-10
1006.000000	0.002241	-3.983202E-10
1009.000000	0.002080	-3.552130E-10
1012.000000	0.001914	-3.334510E-10
1015.000000	0.001772	-3.139003E-10
1018.000000	0.001664	-2.952587E-10
1021.000000	0.001525	-2.771044E-10
1024.000000	0.001425	-2.679773E-10
1027.000000	0.001306	-2.684525E-10
1030.000000	0.001172	-2.596126E-10
1033.000000	0.001058	-2.448720E-10
1036.000000	0.000974	-2.509431E-10
1039.000000	0.000879	-2.567092E-10
1042.000000	0.000817	-2.135842E-10
1045.000000	0.000827	-1.806186E-10
1048.000000	0.000790	-1.683064E-10
1051.000000	0.000741	-1.613203E-10
1054.000000	0.000660	-1.636021E-10
1057.000000	0.000583	-1.628336E-10
1060.000000	0.000523	-1.653384E-10
1063.000000	0.000448	-1.722598E-10
1066.000000	0.000380	-1.904261E-10
1069.000000	0.000290	-3.091022E-10
1072.000000	0.000207	-4.529657E-10
1075.000000	0.000288	-1.869887E-10
1078.000000	0.000322	-1.455062E-10
1081.000000	0.000349	-1.287595E-10
1084.000000	0.000349	-1.200898E-10
1087.000000	0.000360	-1.124702E-10
1090.000000	0.000352	-1.072556E-10
1093.000000	0.000356	-1.036658E-10
1096.000000	0.000342	-9.826337E-11
1099.000000	0.000319	-9.890264E-11
