Wavelength (nm)	EQE (%)	Current (A)	Dark Current (A) -> 	-14.955412000E-12	
400.000000	31.169080	-6.592585E-7
403.000000	33.120565	-1.592128E-6
406.000000	30.476024	-2.380807E-6
409.000000	30.005113	-3.299808E-6
412.000000	27.807060	-4.684330E-6
415.000000	28.300918	-2.276696E-6
418.000000	31.946789	-2.228547E-6
421.000000	29.482885	-2.418127E-6
424.000000	30.217014	-2.240700E-6
427.000000	29.399605	-2.848902E-6
430.000000	27.367487	-4.230753E-6
433.000000	26.850616	-3.889884E-6
436.000000	26.854904	-3.856939E-6
439.000000	26.121792	-4.115780E-6
442.000000	26.119771	-4.321638E-6
445.000000	25.310386	-4.758031E-6
448.000000	24.593269	-5.248629E-6
451.000000	23.799351	-4.475497E-6
454.000000	25.500370	-4.414444E-6
457.000000	24.592198	-4.752941E-6
460.000000	26.236890	-3.728630E-6
463.000000	23.975490	-5.858437E-6
466.000000	25.786323	-4.962649E-6
469.000000	26.107304	-4.623598E-6
472.000000	26.254224	-4.302107E-6
475.000000	26.196349	-4.071378E-6
478.000000	25.464085	-5.080212E-6
481.000000	27.047483	-4.493294E-6
484.000000	27.244624	-4.364800E-6
487.000000	26.089255	-5.772733E-6
490.000000	27.265499	-4.965400E-6
493.000000	26.739657	-4.951169E-6
496.000000	26.391024	-5.879258E-6
499.000000	27.086114	-6.013755E-6
502.000000	27.579402	-5.562666E-6
505.000000	26.805499	-6.584019E-6
508.000000	25.581571	-8.109407E-6
511.000000	24.920076	-9.081818E-6
514.000000	26.698349	-6.235683E-6
517.000000	27.400731	-6.303724E-6
520.000000	25.072827	-9.926927E-6
523.000000	25.052558	-9.036104E-6
526.000000	27.618041	-5.909752E-6
529.000000	27.006710	-7.649736E-6
532.000000	26.484874	-8.151796E-6
535.000000	28.484998	-4.081670E-6
538.000000	28.034292	-7.018411E-6
541.000000	26.380401	-8.860234E-6
544.000000	29.136970	-4.437968E-6
547.000000	27.460220	-7.779202E-6
550.000000	27.410649	-7.027797E-6
553.000000	28.932958	-5.355991E-6
556.000000	27.901457	-7.006599E-6
559.000000	29.832655	-5.191089E-6
562.000000	28.524755	-6.358793E-6
565.000000	28.893711	-6.034114E-6
568.000000	28.557454	-5.885098E-6
571.000000	28.144601	-6.892419E-6
574.000000	28.611671	-6.475235E-6
577.000000	26.568369	-8.949020E-6
580.000000	28.274165	-6.768216E-6
583.000000	27.782944	-7.053810E-6
586.000000	27.140724	-8.945063E-6
589.000000	28.639352	-6.506291E-6
592.000000	28.893383	-3.776277E-6
595.000000	27.922399	-4.363099E-6
598.000000	28.412104	-3.525150E-6
601.000000	28.078015	-4.761211E-6
604.000000	28.186168	-4.948376E-6
607.000000	27.757360	-5.224100E-6
610.000000	27.837348	-5.345181E-6
613.000000	26.283056	-8.596132E-6
616.000000	24.671547	-1.023570E-5
619.000000	26.679547	-6.355230E-6
622.000000	25.568120	-1.209844E-5
625.000000	23.613448	-1.341913E-5
628.000000	26.263900	-7.744703E-6
631.000000	26.554565	-9.460407E-6
634.000000	25.312414	-1.102086E-5
637.000000	24.146249	-1.348243E-5
640.000000	24.098459	-1.328016E-5
643.000000	24.714652	-1.294833E-5
646.000000	24.127898	-1.507350E-5
649.000000	24.319808	-1.473783E-5
652.000000	23.423384	-1.776175E-5
655.000000	23.662447	-1.649879E-5
658.000000	23.777808	-1.794717E-5
661.000000	22.670026	-2.050896E-5
664.000000	23.522564	-1.881233E-5
667.000000	23.265250	-2.099257E-5
670.000000	23.278880	-2.106882E-5
673.000000	23.301776	-2.203668E-5
676.000000	22.975761	-2.298821E-5
679.000000	23.235363	-2.310875E-5
682.000000	23.208538	-2.349612E-5
685.000000	23.181870	-2.485808E-5
688.000000	23.242734	-2.475553E-5
691.000000	23.463737	-2.526698E-5
694.000000	23.749912	-2.462085E-5
697.000000	24.246848	-2.455887E-5
700.000000	23.895582	-2.663422E-5
703.000000	23.690553	-2.683195E-5
706.000000	23.281689	-2.718082E-5
709.000000	23.300356	-2.629583E-5
712.000000	22.551795	-2.901000E-5
715.000000	22.969599	-2.566347E-5
718.000000	22.895668	-2.423540E-5
721.000000	21.717872	-2.848834E-5
724.000000	22.059057	-2.258203E-5
727.000000	21.487415	-2.480778E-5
730.000000	21.026268	-2.145980E-5
733.000000	20.501474	-2.038529E-5
736.000000	19.337593	-1.944912E-5
739.000000	18.556580	-1.558873E-5
742.000000	17.142217	-1.631281E-5
745.000000	15.755153	-1.221472E-5
748.000000	14.436134	-1.184252E-5
751.000000	12.662368	-1.000211E-5
754.000000	11.260714	-7.753115E-6
757.000000	9.760034	-7.666561E-6
760.000000	8.281323	-5.277766E-6
763.000000	7.096100	-4.942707E-6
766.000000	5.935297	-3.761626E-6
769.000000	4.960275	-2.823822E-6
772.000000	4.094076	-2.582807E-6
775.000000	3.333388	-1.792822E-6
778.000000	2.779928	-1.644894E-6
781.000000	2.261348	-1.269027E-6
784.000000	1.862904	-9.857637E-7
787.000000	1.525793	-8.787575E-7
790.000000	1.251330	-6.557832E-7
793.000000	1.046124	-6.145208E-7
796.000000	0.863010	-4.807801E-7
799.000000	0.729785	-4.080067E-7
802.000000	0.617323	-3.675255E-7
805.000000	0.529846	-2.927559E-7
808.000000	0.458358	-2.794664E-7
811.000000	0.396338	-2.197418E-7
814.000000	0.351441	-2.068682E-7
817.000000	0.306805	-1.805607E-7
820.000000	0.274797	-1.578473E-7
823.000000	0.246460	-1.578809E-7
826.000000	0.221617	-1.278211E-7
829.000000	0.204586	-1.344034E-7
832.000000	0.181473	-1.129645E-7
835.000000	0.165122	-1.116289E-7
838.000000	0.150898	-1.031786E-7
841.000000	0.139153	-8.918852E-8
844.000000	0.130496	-9.134305E-8
847.000000	0.120889	-7.933652E-8
850.000000	0.112929	-8.063189E-8
853.000000	0.104990	-7.003673E-8
856.000000	0.098035	-6.590921E-8
859.000000	0.092162	-6.241581E-8
862.000000	0.086654	-5.363094E-8
865.000000	0.081268	-5.037146E-8
868.000000	0.076821	-4.431075E-8
871.000000	0.072957	-4.108406E-8
874.000000	0.068661	-3.558590E-8
877.000000	0.064190	-3.161993E-8
880.000000	0.060508	-2.932815E-8
883.000000	0.057061	-2.591497E-8
886.000000	0.054252	-2.430815E-8
889.000000	0.050835	-2.186958E-8
892.000000	0.047912	-1.988693E-8
895.000000	0.045177	-1.803872E-8
898.000000	0.042383	-1.680208E-8
901.000000	0.039878	-1.535752E-8
904.000000	0.037595	-1.510091E-8
907.000000	0.034782	-1.368513E-8
910.000000	0.032720	-1.266843E-8
913.000000	0.030771	-1.250046E-8
916.000000	0.028520	-1.096247E-8
919.000000	0.026772	-1.067257E-8
922.000000	0.024761	-9.929523E-9
925.000000	0.023001	-8.774889E-9
928.000000	0.021507	-8.544122E-9
931.000000	0.019779	-7.258901E-9
934.000000	0.018493	-7.191971E-9
937.000000	0.017018	-6.441605E-9
940.000000	0.015687	-5.518511E-9
943.000000	0.014493	-5.188555E-9
946.000000	0.013213	-4.467048E-9
949.000000	0.012210	-4.350802E-9
952.000000	0.011132	-3.763300E-9
955.000000	0.010317	-3.299212E-9
958.000000	0.009464	-2.933266E-9
961.000000	0.008573	-2.549263E-9
964.000000	0.007864	-2.331308E-9
967.000000	0.007143	-2.013696E-9
970.000000	0.006487	-1.800166E-9
973.000000	0.005940	-1.578262E-9
976.000000	0.005410	-1.381152E-9
979.000000	0.004973	-1.172471E-9
982.000000	0.004567	-9.905378E-10
985.000000	0.004134	-8.770777E-10
988.000000	0.003773	-7.827383E-10
991.000000	0.003411	-6.930677E-10
994.000000	0.003148	-5.962718E-10
997.000000	0.002906	-5.326110E-10
1000.000000	0.002638	-4.859608E-10
1003.000000	0.002401	-4.390170E-10
1006.000000	0.002193	-3.898676E-10
1009.000000	0.002008	-3.430472E-10
1012.000000	0.001840	-3.206755E-10
1015.000000	0.001673	-2.964146E-10
1018.000000	0.001555	-2.758667E-10
1021.000000	0.001429	-2.596597E-10
1024.000000	0.001300	-2.443442E-10
1027.000000	0.001184	-2.434759E-10
1030.000000	0.001052	-2.330584E-10
1033.000000	0.000941	-2.177312E-10
1036.000000	0.000862	-2.220543E-10
1039.000000	0.000770	-2.249697E-10
1042.000000	0.000707	-1.849242E-10
1045.000000	0.000702	-1.532137E-10
1048.000000	0.000673	-1.432948E-10
1051.000000	0.000617	-1.343787E-10
1054.000000	0.000547	-1.356106E-10
1057.000000	0.000488	-1.364554E-10
1060.000000	0.000434	-1.371182E-10
1063.000000	0.000375	-1.441688E-10
1066.000000	0.000317	-1.587218E-10
1069.000000	0.000252	-2.690037E-10
1072.000000	0.000193	-4.215898E-10
1075.000000	0.000237	-1.535833E-10
1078.000000	0.000257	-1.162301E-10
1081.000000	0.000270	-9.950694E-11
1084.000000	0.000264	-9.100158E-11
1087.000000	0.000262	-8.171021E-11
1090.000000	0.000262	-7.975692E-11
1093.000000	0.000256	-7.458918E-11
1096.000000	0.000248	-7.149210E-11
1099.000000	0.000232	-7.196131E-11
