Wavelength (nm)	EQE (%)	Current (A)	Dark Current (A) -> 	-49.457626000E-12	
400.000000	26.227507	-5.547391E-7
403.000000	27.173384	-1.306243E-6
406.000000	25.083135	-1.959511E-6
409.000000	25.230613	-2.774733E-6
412.000000	24.911210	-4.196500E-6
415.000000	23.549520	-1.894465E-6
418.000000	25.911260	-1.807520E-6
421.000000	24.954793	-2.046742E-6
424.000000	25.787235	-1.912216E-6
427.000000	25.587565	-2.479505E-6
430.000000	25.537749	-3.947893E-6
433.000000	25.457082	-3.688001E-6
436.000000	26.170716	-3.758675E-6
439.000000	26.714559	-4.209177E-6
442.000000	27.152265	-4.492469E-6
445.000000	27.232308	-5.119328E-6
448.000000	27.101590	-5.783948E-6
451.000000	26.741422	-5.028757E-6
454.000000	28.386613	-4.914090E-6
457.000000	28.012149	-5.413916E-6
460.000000	29.883089	-4.246806E-6
463.000000	27.616325	-6.748079E-6
466.000000	29.473810	-5.672316E-6
469.000000	29.547206	-5.232804E-6
472.000000	29.514158	-4.836291E-6
475.000000	29.019932	-4.510213E-6
478.000000	28.767757	-5.739311E-6
481.000000	30.436715	-5.056334E-6
484.000000	30.326810	-4.858590E-6
487.000000	29.234175	-6.468605E-6
490.000000	30.230900	-5.505438E-6
493.000000	29.740137	-5.506744E-6
496.000000	29.254763	-6.517227E-6
499.000000	29.770285	-6.609704E-6
502.000000	30.268210	-6.104989E-6
505.000000	29.872387	-7.337314E-6
508.000000	28.639162	-9.078669E-6
511.000000	28.081444	-1.023394E-5
514.000000	29.598221	-6.912979E-6
517.000000	30.395370	-6.992661E-6
520.000000	28.354578	-1.122625E-5
523.000000	27.842316	-1.004233E-5
526.000000	30.552952	-6.537769E-6
529.000000	30.191624	-8.551873E-6
532.000000	29.345880	-9.032387E-6
535.000000	30.475871	-4.366946E-6
538.000000	30.975447	-7.754732E-6
541.000000	29.313791	-9.845455E-6
544.000000	30.674879	-4.672213E-6
547.000000	30.244216	-8.567880E-6
550.000000	29.880030	-7.660920E-6
553.000000	30.604617	-5.665444E-6
556.000000	30.054444	-7.547256E-6
559.000000	30.898451	-5.376545E-6
562.000000	30.077455	-6.704924E-6
565.000000	29.656249	-6.193361E-6
568.000000	29.330904	-6.044490E-6
571.000000	28.016836	-6.861130E-6
574.000000	27.541456	-6.233030E-6
577.000000	26.270352	-8.848639E-6
580.000000	26.092040	-6.245863E-6
583.000000	25.396891	-6.448015E-6
586.000000	24.520748	-8.081569E-6
589.000000	24.215232	-5.501219E-6
592.000000	25.082292	-3.278179E-6
595.000000	23.647521	-3.695115E-6
598.000000	23.371278	-2.899724E-6
601.000000	22.686278	-3.846930E-6
604.000000	21.559299	-3.784960E-6
607.000000	21.310703	-4.010801E-6
610.000000	21.013621	-4.034925E-6
613.000000	20.339208	-6.652138E-6
616.000000	18.729493	-7.770468E-6
619.000000	18.425870	-4.389154E-6
622.000000	18.254014	-8.637518E-6
625.000000	16.121036	-9.161317E-6
628.000000	15.159758	-4.470312E-6
631.000000	14.405495	-5.132144E-6
634.000000	12.472369	-5.430388E-6
637.000000	10.758836	-6.007362E-6
640.000000	9.163869	-5.050018E-6
643.000000	7.788608	-4.080554E-6
646.000000	6.451299	-4.030341E-6
649.000000	5.185971	-3.142704E-6
652.000000	4.156160	-3.151580E-6
655.000000	3.244223	-2.262055E-6
658.000000	2.591758	-1.956224E-6
661.000000	2.006600	-1.815317E-6
664.000000	1.592008	-1.273219E-6
667.000000	1.282573	-1.157284E-6
670.000000	1.043029	-9.440051E-7
673.000000	0.846812	-8.008367E-7
676.000000	0.701899	-7.022796E-7
679.000000	0.603440	-6.001522E-7
682.000000	0.518080	-5.244995E-7
685.000000	0.460744	-4.940587E-7
688.000000	0.411879	-4.386870E-7
691.000000	0.375650	-4.045201E-7
694.000000	0.341690	-3.542206E-7
697.000000	0.319823	-3.239390E-7
700.000000	0.297092	-3.311412E-7
703.000000	0.273965	-3.102928E-7
706.000000	0.255618	-2.984277E-7
709.000000	0.243213	-2.744808E-7
712.000000	0.229992	-2.958551E-7
715.000000	0.218219	-2.438112E-7
718.000000	0.207382	-2.195170E-7
721.000000	0.196086	-2.572156E-7
724.000000	0.182912	-1.872480E-7
727.000000	0.175602	-2.027372E-7
730.000000	0.162996	-1.663565E-7
733.000000	0.157171	-1.562802E-7
736.000000	0.146726	-1.475721E-7
739.000000	0.139119	-1.168689E-7
742.000000	0.132841	-1.264137E-7
745.000000	0.123950	-9.609630E-8
748.000000	0.121429	-9.961284E-8
751.000000	0.112286	-8.869566E-8
754.000000	0.107894	-7.428598E-8
757.000000	0.103477	-8.128180E-8
760.000000	0.096555	-6.153511E-8
763.000000	0.093552	-6.516240E-8
766.000000	0.087387	-5.538337E-8
769.000000	0.083945	-4.778861E-8
772.000000	0.079048	-4.986889E-8
775.000000	0.073622	-3.959673E-8
778.000000	0.070984	-4.200160E-8
781.000000	0.066927	-3.755829E-8
784.000000	0.064081	-3.390849E-8
787.000000	0.060089	-3.460719E-8
790.000000	0.056096	-2.939818E-8
793.000000	0.053278	-3.129664E-8
796.000000	0.049373	-2.750572E-8
799.000000	0.046537	-2.601772E-8
802.000000	0.043499	-2.589739E-8
805.000000	0.040458	-2.235454E-8
808.000000	0.037549	-2.289434E-8
811.000000	0.034846	-1.931972E-8
814.000000	0.032850	-1.933653E-8
817.000000	0.030233	-1.779275E-8
820.000000	0.028218	-1.620887E-8
823.000000	0.026207	-1.678772E-8
826.000000	0.024073	-1.388473E-8
829.000000	0.022553	-1.481640E-8
832.000000	0.020481	-1.274900E-8
835.000000	0.019345	-1.307818E-8
838.000000	0.017862	-1.221308E-8
841.000000	0.016550	-1.060754E-8
844.000000	0.015176	-1.062283E-8
847.000000	0.013941	-9.149202E-9
850.000000	0.012895	-9.207205E-9
853.000000	0.011751	-7.838792E-9
856.000000	0.010752	-7.228332E-9
859.000000	0.009791	-6.631061E-9
862.000000	0.008986	-5.561417E-9
865.000000	0.008166	-5.061433E-9
868.000000	0.007488	-4.319389E-9
871.000000	0.006873	-3.870174E-9
874.000000	0.006275	-3.252070E-9
877.000000	0.005650	-2.783120E-9
880.000000	0.005163	-2.502346E-9
883.000000	0.004694	-2.131768E-9
886.000000	0.004285	-1.920156E-9
889.000000	0.003862	-1.661647E-9
892.000000	0.003515	-1.459180E-9
895.000000	0.003208	-1.280938E-9
898.000000	0.002910	-1.153506E-9
901.000000	0.002641	-1.017098E-9
904.000000	0.002406	-9.663309E-10
907.000000	0.002164	-8.513100E-10
910.000000	0.001977	-7.654650E-10
913.000000	0.001799	-7.307515E-10
916.000000	0.001626	-6.249629E-10
919.000000	0.001485	-5.920509E-10
922.000000	0.001339	-5.369835E-10
925.000000	0.001220	-4.653628E-10
928.000000	0.001117	-4.438121E-10
931.000000	0.001020	-3.743622E-10
934.000000	0.000932	-3.623080E-10
937.000000	0.000850	-3.217055E-10
940.000000	0.000779	-2.741227E-10
943.000000	0.000717	-2.566136E-10
946.000000	0.000656	-2.218417E-10
949.000000	0.000602	-2.143571E-10
952.000000	0.000550	-1.860725E-10
955.000000	0.000523	-1.672846E-10
958.000000	0.000486	-1.506728E-10
961.000000	0.000452	-1.343427E-10
964.000000	0.000420	-1.245822E-10
967.000000	0.000389	-1.097536E-10
970.000000	0.000368	-1.020167E-10
973.000000	0.000353	-9.385158E-11
976.000000	0.000332	-8.478319E-11
979.000000	0.000327	-7.716958E-11
982.000000	0.000314	-6.807184E-11
985.000000	0.000303	-6.418872E-11
988.000000	0.000293	-6.080420E-11
991.000000	0.000281	-5.703837E-11
994.000000	0.000281	-5.313770E-11
997.000000	0.000272	-4.979424E-11
1000.000000	0.000268	-4.937186E-11
1003.000000	0.000251	-4.596975E-11
1006.000000	0.000245	-4.348856E-11
1009.000000	0.000243	-4.144144E-11
1012.000000	0.000234	-4.073756E-11
1015.000000	0.000230	-4.068476E-11
1018.000000	0.000216	-3.830329E-11
1021.000000	0.000213	-3.870802E-11
1024.000000	0.000198	-3.731781E-11
1027.000000	0.000189	-3.881358E-11
1030.000000	0.000178	-3.938845E-11
1033.000000	0.000158	-3.666091E-11
1036.000000	0.000146	-3.771669E-11
1039.000000	0.000129	-3.762286E-11
1042.000000	0.000133	-3.476627E-11
1045.000000	0.000154	-3.366934E-11
1048.000000	0.000152	-3.233784E-11
1051.000000	0.000144	-3.127610E-11
1054.000000	0.000139	-3.437906E-11
1057.000000	0.000121	-3.390986E-11
1060.000000	0.000112	-3.541735E-11
1063.000000	9.670020E-5	-3.714184E-11
1066.000000	8.494319E-5	-4.251486E-11
1069.000000	6.333475E-5	-6.761430E-11
1072.000000	4.395632E-5	-9.599255E-11
1075.000000	6.721112E-5	-4.358242E-11
1078.000000	7.218505E-5	-3.266630E-11
1081.000000	8.342742E-5	-3.074820E-11
1084.000000	9.231760E-5	-3.176875E-11
1087.000000	9.711773E-5	-3.033176E-11
1090.000000	9.218033E-5	-2.806170E-11
1093.000000	9.468662E-5	-2.761008E-11
1096.000000	9.496485E-5	-2.732268E-11
1099.000000	9.028285E-5	-2.796199E-11
