Voltage (V)	Current (A)	Current Density (A/m^2)	 Dividing Wavelength (nm) = 540  Light Power Density (W/m^2) = 1107.265488  Total Light Power Density (W/m^2) = 1107.265488	
-0.199858	-0.000444	-55.457100
-0.189780	-0.000447	-55.870863
-0.179729	-0.000443	-55.396738
-0.169613	-0.000445	-55.642900
-0.159502	-0.000447	-55.850350
-0.149457	-0.000446	-55.765788
-0.139346	-0.000443	-55.429425
-0.129269	-0.000445	-55.675375
-0.119213	-0.000446	-55.688188
-0.109104	-0.000438	-54.773913
-0.098998	-0.000442	-55.233175
-0.088953	-0.000442	-55.225350
-0.078845	-0.000442	-55.201575
-0.068771	-0.000438	-54.805750
-0.058653	-0.000440	-55.054150
-0.048603	-0.000439	-54.908062
-0.038493	-0.000439	-54.864838
-0.028392	-0.000438	-54.811300
-0.018340	-0.000439	-54.932150
-0.008263	-0.000437	-54.636825
0.001807	-0.000437	-54.590488
0.011855	-0.000440	-54.962375
0.021927	-0.000436	-54.484662
0.032041	-0.000432	-53.977825
0.042087	-0.000434	-54.310475
0.052210	-0.000434	-54.258225
0.062285	-0.000434	-54.211088
0.072362	-0.000431	-53.907475
0.082441	-0.000429	-53.571075
0.092552	-0.000430	-53.794150
0.102601	-0.000431	-53.854275
0.112716	-0.000427	-53.383363
0.122792	-0.000430	-53.741088
0.132838	-0.000431	-53.854463
0.142946	-0.000430	-53.773963
0.153062	-0.000431	-53.884613
0.163145	-0.000428	-53.444350
0.173193	-0.000425	-53.139463
0.183307	-0.000426	-53.310725
0.193422	-0.000425	-53.081400
0.203463	-0.000422	-52.703088
0.213538	-0.000423	-52.916625
0.223657	-0.000423	-52.930888
0.233700	-0.000421	-52.565488
0.243811	-0.000422	-52.748425
0.253887	-0.000418	-52.301463
0.263965	-0.000416	-52.001675
0.274046	-0.000412	-51.518287
0.284159	-0.000414	-51.693775
0.294208	-0.000415	-51.861562
0.304314	-0.000409	-51.183275
0.314396	-0.000413	-51.646588
0.324443	-0.000410	-51.213275
0.334557	-0.000411	-51.357013
0.344672	-0.000409	-51.167225
0.354712	-0.000405	-50.654200
0.364793	-0.000406	-50.784050
0.374908	-0.000403	-50.381863
0.384957	-0.000403	-50.325138
0.395064	-0.000402	-50.189250
0.405144	-0.000398	-49.701025
0.415252	-0.000398	-49.787538
0.425295	-0.000396	-49.560725
0.435419	-0.000393	-49.065625
0.445490	-0.000389	-48.679913
0.455572	-0.000389	-48.594938
0.465651	-0.000389	-48.679650
0.475761	-0.000386	-48.247887
0.485810	-0.000383	-47.929662
0.495925	-0.000380	-47.466825
0.506003	-0.000379	-47.319313
0.516051	-0.000375	-46.813625
0.526158	-0.000370	-46.259438
0.536264	-0.000364	-45.559650
0.546316	-0.000361	-45.071587
0.556393	-0.000358	-44.781937
0.566509	-0.000354	-44.242313
0.576553	-0.000348	-43.455362
0.586658	-0.000346	-43.269913
0.596739	-0.000339	-42.415325
0.606828	-0.000328	-40.986713
0.616906	-0.000326	-40.774513
0.627017	-0.000316	-39.504263
0.637062	-0.000310	-38.802363
0.647172	-0.000303	-37.866425
0.657256	-0.000289	-36.088825
0.667361	-0.000279	-34.851238
0.677412	-0.000270	-33.735375
0.687519	-0.000250	-31.240100
0.697599	-0.000234	-29.209150
0.707647	-0.000214	-26.697900
0.717760	-0.000191	-23.874788
0.727879	-0.000164	-20.441638
0.737918	-0.000130	-16.266100
0.747987	-9.006314E-5	-11.257893
0.758101	-3.580437E-5	-4.475546
0.768141	2.495981E-5	3.119976
0.778070	9.712023E-5	12.140029
0.788341	0.000198	24.778013
0.798395	0.000313	39.184213
0.808463	0.000454	56.744513
0.818575	0.000622	77.713250
0.828631	0.000821	102.676375
0.838421	0.001043	130.324000
0.848870	0.001314	164.190375
0.858915	0.001604	200.470375
0.869032	0.001927	240.863125
0.879156	0.002277	284.679375
0.889238	0.002652	331.459250
0.899287	0.003048	380.980500
0.909405	0.003468	433.533250
0.919508	0.003907	488.359250
0.929554	0.004361	545.086375
0.939661	0.004833	604.082125
0.949737	0.005317	664.653375
0.959790	0.005813	726.595250
0.969891	0.006323	790.328750
0.980008	0.006844	855.453250
0.990056	0.007370	921.267125
1.000133	0.007907	988.343375
