Voltage (V)	Current (A)	Current Density (A/m^2)	 Dividing Wavelength (nm) = 800  Light Power Density (W/m^2) = 1076.543839  Total Light Power Density (W/m^2) = 1076.543839	
-0.199920	-9.242510E-5	-11.553138
-0.193236	-9.096046E-5	-11.370058
-0.186528	-9.231889E-5	-11.539861
-0.179800	-9.339966E-5	-11.674957
-0.173081	-9.240142E-5	-11.550178
-0.166372	-9.262708E-5	-11.578385
-0.159663	-9.099714E-5	-11.374643
-0.152923	-9.142108E-5	-11.427635
-0.146220	-9.209151E-5	-11.511439
-0.139526	-8.989200E-5	-11.236500
-0.132838	-8.983247E-5	-11.229059
-0.126065	-9.029385E-5	-11.286731
-0.119389	-8.994970E-5	-11.243713
-0.112682	-9.089367E-5	-11.361709
-0.105975	-9.050057E-5	-11.312571
-0.099266	-8.965279E-5	-11.206599
-0.092526	-8.715061E-5	-10.893826
-0.085821	-8.821685E-5	-11.027106
-0.079116	-8.906809E-5	-11.133511
-0.072425	-8.842414E-5	-11.053018
-0.065654	-8.891123E-5	-11.113904
-0.058981	-8.791169E-5	-10.988961
-0.052276	-8.650109E-5	-10.812636
-0.045567	-8.692229E-5	-10.865286
-0.038859	-8.650198E-5	-10.812748
-0.032115	-8.510683E-5	-10.638354
-0.025415	-8.622622E-5	-10.778277
-0.018706	-8.556322E-5	-10.695403
-0.012033	-8.463969E-5	-10.579961
-0.005251	-8.551896E-5	-10.689870
0.001424	-8.446266E-5	-10.557832
0.008128	-8.376866E-5	-10.471082
0.014837	-8.578611E-5	-10.723264
0.021577	-8.526481E-5	-10.658101
0.028291	-8.310803E-5	-10.388504
0.034965	-8.423419E-5	-10.529274
0.041670	-8.401512E-5	-10.501890
0.048378	-8.252603E-5	-10.315754
0.055129	-8.243121E-5	-10.303901
0.061835	-8.284872E-5	-10.356090
0.068542	-8.212357E-5	-10.265446
0.075212	-8.256018E-5	-10.320023
0.081987	-8.194405E-5	-10.243006
0.088667	-8.058064E-5	-10.072580
0.095364	-7.976878E-5	-9.971098
0.102072	-7.932804E-5	-9.916005
0.108782	-7.999100E-5	-9.998875
0.115527	-7.966766E-5	-9.958457
0.122237	-7.941906E-5	-9.927383
0.128912	-7.855451E-5	-9.819314
0.135617	-7.844229E-5	-9.805286
0.142355	-7.907763E-5	-9.884704
0.149074	-7.707477E-5	-9.634346
0.155776	-7.657823E-5	-9.572279
0.162486	-7.694273E-5	-9.617841
0.169221	-7.684794E-5	-9.605993
0.175928	-7.628858E-5	-9.536072
0.182643	-7.613937E-5	-9.517421
0.189317	-7.606739E-5	-9.508424
0.196023	-7.588050E-5	-9.485063
0.202765	-7.395331E-5	-9.244164
0.209474	-7.356997E-5	-9.196246
0.216187	-7.360218E-5	-9.200273
0.222893	-7.408507E-5	-9.260634
0.229630	-7.391901E-5	-9.239876
0.236343	-7.266852E-5	-9.083565
0.243017	-7.158584E-5	-8.948230
0.249728	-7.065489E-5	-8.831861
0.256469	-7.032171E-5	-8.790214
0.263176	-6.924401E-5	-8.655501
0.269885	-7.035780E-5	-8.794725
0.276593	-6.965920E-5	-8.707400
0.283266	-6.738332E-5	-8.422915
0.290040	-6.858295E-5	-8.572869
0.296708	-6.821019E-5	-8.526274
0.303419	-6.623344E-5	-8.279180
0.310126	-6.498551E-5	-8.123189
0.316859	-6.657674E-5	-8.322093
0.323567	-6.434560E-5	-8.043200
0.330281	-6.406561E-5	-8.008201
0.336969	-6.142401E-5	-7.678001
0.343664	-6.135580E-5	-7.669475
0.350413	-6.073833E-5	-7.592291
0.357113	-5.997614E-5	-7.497018
0.363820	-5.872867E-5	-7.341084
0.370533	-5.834232E-5	-7.292790
0.377271	-5.536488E-5	-6.920610
0.383979	-5.435641E-5	-6.794551
0.390653	-5.411604E-5	-6.764505
0.397355	-5.280655E-5	-6.600819
0.404104	-5.014995E-5	-6.268744
0.410812	-5.079763E-5	-6.349704
0.417512	-4.790698E-5	-5.988373
0.424219	-4.480255E-5	-5.600319
0.430930	-4.358608E-5	-5.448260
0.437669	-4.131947E-5	-5.164934
0.444372	-3.898563E-5	-4.873204
0.451039	-3.689385E-5	-4.611731
0.457743	-3.344935E-5	-4.181169
0.464494	-2.857738E-5	-3.572173
0.471199	-2.563611E-5	-3.204514
0.477910	-2.229071E-5	-2.786339
0.484603	-1.708640E-5	-2.135800
0.491352	-1.348736E-5	-1.685920
0.498107	-7.414296E-6	-0.926787
0.504708	-2.496714E-6	-0.312089
0.511409	3.551456E-6	0.443932
0.518136	1.279658E-5	1.599573
0.524887	2.159865E-5	2.699831
0.531585	3.045239E-5	3.806549
0.538295	4.038301E-5	5.047876
0.544959	5.234073E-5	6.542591
0.551727	6.762151E-5	8.452689
0.558398	8.402139E-5	10.502674
0.565105	9.952556E-5	12.440695
0.571838	0.000121	15.180088
0.578550	0.000143	17.922550
0.585278	0.000171	21.348025
0.591995	0.000199	24.926075
0.598672	0.000234	29.270200
0.605374	0.000273	34.137862
0.612118	0.000318	39.768800
0.618823	0.000368	45.974263
0.625537	0.000424	52.973062
0.632246	0.000488	60.948288
0.638972	0.000559	69.837400
0.645678	0.000639	79.856250
0.652356	0.000727	90.867075
0.659067	0.000824	102.956238
0.665768	0.000931	116.435450
0.672530	0.001049	131.101250
0.679230	0.001175	146.927000
0.685942	0.001313	164.160375
0.692613	0.001460	182.495625
0.699389	0.001619	202.382125
0.706097	0.001787	223.313000
0.712772	0.001963	245.384500
0.719495	0.002151	268.831500
0.726200	0.002347	293.418375
0.732937	0.002553	319.166375
0.739649	0.002768	345.949375
0.746365	0.002990	373.741625
0.753032	0.003219	402.323125
0.759798	0.003458	432.270250
0.766467	0.003702	462.702250
0.773177	0.003953	494.103375
0.779890	0.004211	526.328750
0.786632	0.004476	559.480250
0.793332	0.004746	593.224750
0.800036	0.005020	627.534125
