Voltage (V)	Current (A)	Current Density (A/m^2)	 Dividing Wavelength (nm) = 680  Light Power Density (W/m^2) = 1070.980570  Total Light Power Density (W/m^2) = 1070.980570	
-0.199970	-6.218079E-5	-10.720826
-0.184812	-6.174200E-5	-10.645172
-0.169670	-6.385102E-5	-11.008797
-0.154518	-6.347841E-5	-10.944553
-0.139373	-6.212378E-5	-10.710997
-0.124213	-6.181505E-5	-10.657767
-0.109064	-6.151000E-5	-10.605172
-0.093921	-6.242379E-5	-10.762722
-0.078764	-6.083508E-5	-10.488807
-0.063620	-6.173973E-5	-10.644781
-0.048458	-6.291360E-5	-10.847172
-0.033309	-6.157722E-5	-10.616762
-0.018163	-6.078283E-5	-10.479798
-0.003015	-5.994247E-5	-10.334909
0.012096	-5.953084E-5	-10.263938
0.027253	-6.054184E-5	-10.438248
0.042398	-6.001012E-5	-10.346572
0.057616	-5.999536E-5	-10.344028
0.072770	-5.934194E-5	-10.231369
0.087893	-5.935130E-5	-10.232983
0.103046	-6.019246E-5	-10.378010
0.118191	-5.903207E-5	-10.177943
0.133346	-5.944428E-5	-10.249014
0.148502	-5.917828E-5	-10.203152
0.163649	-5.878819E-5	-10.135895
0.178803	-5.827714E-5	-10.047783
0.193954	-5.894205E-5	-10.162422
0.209102	-5.883690E-5	-10.144293
0.224263	-5.836447E-5	-10.062840
0.239414	-5.695091E-5	-9.819122
0.254558	-5.778681E-5	-9.963243
0.269710	-5.966177E-5	-10.286512
0.284866	-5.813755E-5	-10.023716
0.300017	-5.609503E-5	-9.671557
0.315167	-5.735239E-5	-9.888343
0.330318	-5.789489E-5	-9.981878
0.345477	-5.547867E-5	-9.565288
0.360625	-5.685322E-5	-9.802279
0.375777	-5.725987E-5	-9.872391
0.390892	-5.554725E-5	-9.577112
0.406039	-5.556194E-5	-9.579645
0.421190	-5.673737E-5	-9.782305
0.436351	-5.473148E-5	-9.436462
0.451492	-5.524759E-5	-9.525447
0.466648	-5.368797E-5	-9.256547
0.481804	-5.474824E-5	-9.439352
0.496956	-5.553438E-5	-9.574893
0.512107	-5.127826E-5	-8.841079
0.527250	-5.364199E-5	-9.248619
0.542402	-5.346339E-5	-9.217826
0.557587	-5.336618E-5	-9.201066
0.572741	-5.334285E-5	-9.197043
0.587883	-5.145017E-5	-8.870719
0.603033	-5.150262E-5	-8.879762
0.618194	-5.182509E-5	-8.935360
0.633347	-5.164547E-5	-8.904391
0.648498	-5.198462E-5	-8.962866
0.663646	-5.119777E-5	-8.827202
0.678793	-5.062652E-5	-8.728710
0.693947	-5.166636E-5	-8.907993
0.709098	-4.958935E-5	-8.549888
0.724243	-4.885485E-5	-8.423250
0.739402	-5.021689E-5	-8.658084
0.754557	-4.753192E-5	-8.195159
0.769706	-4.975522E-5	-8.578486
0.784847	-4.960551E-5	-8.552674
0.800003	-4.772834E-5	-8.229024
0.815153	-4.610971E-5	-7.949950
0.830270	-4.662736E-5	-8.039200
0.845426	-4.639290E-5	-7.998776
0.860568	-4.416146E-5	-7.614045
0.875722	-4.453065E-5	-7.677698
0.890879	-4.352185E-5	-7.503767
0.906029	-4.290092E-5	-7.396710
0.921181	-4.054235E-5	-6.990060
0.936325	-4.100420E-5	-7.069690
0.951482	-4.000147E-5	-6.896805
0.966627	-3.718627E-5	-6.411426
0.981778	-3.598780E-5	-6.204793
0.996925	-3.411491E-5	-5.881881
1.012080	-3.115785E-5	-5.372043
1.027230	-2.806336E-5	-4.838510
1.042392	-2.417136E-5	-4.167476
1.057568	-1.940677E-5	-3.345995
1.072708	-1.332940E-5	-2.298172
1.087867	-6.080076E-6	-1.048289
1.102993	4.051274E-6	0.698496
1.118151	1.629224E-5	2.809007
1.133291	3.097925E-5	5.341250
1.148451	4.888005E-5	8.427595
1.163595	7.000302E-5	12.069486
1.178740	9.400027E-5	16.206943
1.193909	0.000121	20.892690
1.209057	0.000152	26.132138
1.224211	0.000185	31.925000
1.239362	0.000222	38.229534
1.254503	0.000261	44.986586
1.269650	0.000303	52.324914
1.284784	0.000348	59.972466
1.299925	0.000396	68.243052
