Wavelength (nm)	EQE (%)	Current (A)	Dark Current (A) -> 	-6.587955400E-9	
400.000000	26.700270	-5.890724E-7
401.000000	29.414558	-8.727040E-7
402.000000	30.081757	-1.331686E-6
403.000000	30.345719	-2.043117E-6
404.000000	30.631547	-2.768428E-6
405.000000	31.325972	-3.737601E-6
406.000000	31.646997	-5.249343E-6
407.000000	31.608557	-5.712923E-6
408.000000	31.938375	-6.200044E-6
409.000000	32.033979	-7.005262E-6
410.000000	32.315854	-7.118274E-6
411.000000	33.342380	-9.634754E-6
412.000000	33.447336	-1.124636E-5
413.000000	34.283035	-1.507200E-5
414.000000	34.301496	-1.762763E-5
415.000000	34.278936	-1.769637E-5
416.000000	34.090828	-1.700370E-5
417.000000	34.512039	-1.519871E-5
418.000000	33.552870	-1.021904E-5
419.000000	33.869024	-7.443075E-6
420.000000	35.017368	-7.792310E-6
421.000000	35.368285	-8.586096E-6
422.000000	35.300162	-7.803138E-6
423.000000	35.499810	-8.110084E-6
424.000000	35.624948	-9.120770E-6
425.000000	36.186686	-9.870208E-6
426.000000	36.431352	-1.065049E-5
427.000000	36.744384	-1.126450E-5
428.000000	36.519294	-1.245514E-5
429.000000	37.287946	-1.408508E-5
430.000000	37.477368	-1.533266E-5
431.000000	37.162494	-1.546849E-5
432.000000	37.303554	-1.549781E-5
433.000000	38.043385	-1.609470E-5
434.000000	38.203634	-1.787403E-5
435.000000	38.237477	-1.835304E-5
436.000000	38.121811	-1.842766E-5
437.000000	38.682071	-2.030096E-5
438.000000	38.732913	-2.113182E-5
439.000000	38.783927	-2.083311E-5
440.000000	38.734202	-2.050084E-5
441.000000	39.300843	-2.291934E-5
442.000000	38.975655	-2.241349E-5
443.000000	39.349955	-2.166084E-5
444.000000	39.579434	-2.159031E-5
445.000000	39.518180	-2.148042E-5
446.000000	40.125153	-2.108993E-5
447.000000	39.895355	-2.349387E-5
448.000000	40.565495	-2.700159E-5
449.000000	40.282727	-2.508820E-5
450.000000	40.242605	-2.322144E-5
451.000000	41.201526	-2.554077E-5
452.000000	41.466230	-2.729058E-5
453.000000	41.238698	-2.564373E-5
454.000000	40.675187	-2.229250E-5
455.000000	41.630672	-2.344056E-5
456.000000	42.125778	-2.793026E-5
457.000000	41.014359	-3.099132E-5
458.000000	41.877336	-3.152487E-5
459.000000	42.064509	-3.001208E-5
460.000000	42.563844	-2.809264E-5
461.000000	42.238791	-2.642049E-5
462.000000	42.810216	-2.608111E-5
463.000000	42.891800	-2.615418E-5
464.000000	42.744999	-2.571021E-5
465.000000	43.688389	-2.689984E-5
466.000000	44.079869	-2.531654E-5
467.000000	43.374637	-2.044395E-5
468.000000	43.581446	-1.986132E-5
469.000000	44.965273	-2.627325E-5
470.000000	44.107787	-2.766187E-5
471.000000	43.863866	-2.127135E-5
472.000000	44.322746	-1.981793E-5
473.000000	45.781847	-2.767642E-5
474.000000	45.639312	-2.902796E-5
475.000000	44.446085	-2.207695E-5
476.000000	45.378248	-2.081036E-5
477.000000	46.284865	-2.501012E-5
478.000000	45.843394	-2.366662E-5
479.000000	45.929028	-2.293894E-5
480.000000	46.781671	-2.758780E-5
481.000000	46.529957	-2.739117E-5
482.000000	44.587491	-1.935939E-5
483.000000	47.029759	-2.025305E-5
484.000000	47.787846	-2.619466E-5
485.000000	46.352955	-2.183733E-5
486.000000	46.824726	-1.935326E-5
487.000000	47.981939	-2.343842E-5
488.000000	48.074127	-2.385889E-5
489.000000	46.784109	-1.991763E-5
490.000000	48.216456	-2.233574E-5
491.000000	47.943078	-2.481969E-5
492.000000	48.358227	-2.749792E-5
493.000000	48.738666	-2.972238E-5
494.000000	47.386462	-2.665793E-5
495.000000	48.672269	-2.612228E-5
496.000000	49.253454	-3.016924E-5
497.000000	49.895423	-3.269626E-5
498.000000	48.895935	-2.967784E-5
499.000000	49.031943	-2.867059E-5
500.000000	49.768034	-3.240943E-5
501.000000	48.311975	-3.854460E-5
502.000000	48.914375	-3.666367E-5
503.000000	48.709234	-3.404797E-5
504.000000	50.214474	-4.033928E-5
505.000000	50.381031	-4.593544E-5
506.000000	50.191820	-4.262048E-5
507.000000	49.741827	-3.457504E-5
508.000000	49.771165	-3.424694E-5
509.000000	49.825766	-3.446541E-5
510.000000	49.175475	-2.979533E-5
511.000000	49.286334	-2.622557E-5
512.000000	49.909795	-2.993360E-5
513.000000	50.645777	-3.449284E-5
514.000000	50.875640	-4.108047E-5
515.000000	51.032897	-4.856061E-5
516.000000	51.753766	-6.227838E-5
517.000000	51.482181	-7.403000E-5
518.000000	51.075373	-6.445851E-5
519.000000	50.449290	-5.215418E-5
520.000000	50.792400	-4.922429E-5
521.000000	49.361240	-3.744803E-5
522.000000	48.920920	-2.879552E-5
523.000000	48.507356	-2.663075E-5
524.000000	50.537471	-3.566125E-5
525.000000	51.345322	-5.035910E-5
526.000000	51.235942	-5.621776E-5
527.000000	51.769364	-6.101157E-5
528.000000	51.891526	-6.938278E-5
529.000000	51.464525	-6.638128E-5
530.000000	50.909157	-4.979808E-5
531.000000	50.081069	-3.661465E-5
532.000000	50.391208	-2.996996E-5
533.000000	50.476211	-3.103310E-5
534.000000	51.415715	-3.403850E-5
535.000000	51.016916	-4.306542E-5
536.000000	52.882409	-6.266379E-5
537.000000	51.783379	-6.241235E-5
538.000000	51.474138	-4.662502E-5
539.000000	51.911834	-4.636949E-5
540.000000	50.808174	-3.809746E-5
541.000000	51.158494	-3.357300E-5
542.000000	51.623022	-3.515752E-5
543.000000	52.079163	-4.161782E-5
544.000000	52.821003	-5.638235E-5
545.000000	52.039733	-6.073565E-5
546.000000	51.901122	-5.393453E-5
547.000000	52.203704	-5.428422E-5
548.000000	51.589338	-4.384392E-5
549.000000	50.988644	-3.165278E-5
550.000000	51.529432	-3.153494E-5
551.000000	51.517285	-3.497446E-5
552.000000	52.551424	-4.705323E-5
553.000000	52.663534	-5.758332E-5
554.000000	52.568496	-5.948556E-5
555.000000	52.801144	-6.011664E-5
556.000000	52.620478	-5.261386E-5
557.000000	52.181504	-4.138703E-5
558.000000	52.381899	-3.953285E-5
559.000000	52.331898	-4.401951E-5
560.000000	52.999256	-5.304764E-5
561.000000	52.870133	-6.213318E-5
562.000000	52.687403	-5.627450E-5
563.000000	52.915507	-5.548191E-5
564.000000	52.389999	-4.738915E-5
565.000000	52.295396	-3.677737E-5
566.000000	52.608402	-3.648247E-5
567.000000	52.957824	-3.925359E-5
568.000000	52.668230	-4.690009E-5
569.000000	52.713075	-5.390646E-5
570.000000	52.870210	-5.145503E-5
571.000000	52.510602	-4.773067E-5
572.000000	52.173229	-4.353730E-5
573.000000	52.302476	-3.556464E-5
574.000000	52.622013	-3.577820E-5
575.000000	52.275716	-4.134826E-5
576.000000	52.940109	-5.321946E-5
577.000000	52.838454	-5.912464E-5
578.000000	52.977912	-6.256285E-5
579.000000	52.480605	-5.807452E-5
580.000000	52.353425	-4.824531E-5
581.000000	52.286507	-4.295690E-5
582.000000	52.473228	-4.063626E-5
583.000000	52.407212	-4.497571E-5
584.000000	52.524853	-5.369317E-5
585.000000	52.628723	-5.736799E-5
586.000000	52.332505	-5.447451E-5
587.000000	52.337342	-5.168816E-5
588.000000	52.676942	-4.417869E-5
589.000000	52.282351	-4.185969E-5
590.000000	52.487234	-4.312781E-5
591.000000	50.766590	-6.133209E-5
592.000000	50.837011	-6.184478E-5
593.000000	50.779305	-6.191780E-5
594.000000	50.746749	-5.913402E-5
595.000000	51.378556	-5.825894E-5
596.000000	51.258667	-5.865426E-5
597.000000	51.665388	-6.073264E-5
598.000000	51.550462	-6.556284E-5
599.000000	51.142902	-6.967787E-5
600.000000	51.461642	-7.323270E-5
601.000000	51.485289	-7.584978E-5
602.000000	51.560883	-7.500307E-5
603.000000	51.453587	-7.358009E-5
604.000000	51.493760	-6.911164E-5
605.000000	51.674940	-6.601519E-5
606.000000	51.793587	-6.671040E-5
607.000000	51.852201	-6.811674E-5
608.000000	52.223402	-7.455007E-5
609.000000	52.329535	-8.106353E-5
610.000000	52.684682	-8.500987E-5
611.000000	52.696399	-8.757109E-5
612.000000	52.009805	-8.543141E-5
613.000000	52.242519	-8.217365E-5
614.000000	52.569803	-7.647908E-5
615.000000	53.013952	-7.264277E-5
616.000000	53.167550	-7.360330E-5
617.000000	52.764170	-7.727795E-5
618.000000	53.542859	-8.558169E-5
619.000000	53.413972	-9.136415E-5
620.000000	53.074396	-9.349364E-5
621.000000	53.077220	-9.585539E-5
622.000000	52.903507	-9.683258E-5
623.000000	52.654629	-9.827317E-5
624.000000	52.475941	-0.000101
625.000000	50.465566	-0.000102
626.000000	51.477792	-9.816641E-5
627.000000	48.603420	-9.518887E-5
628.000000	49.153706	-9.440271E-5
629.000000	49.156627	-9.446010E-5
630.000000	48.794562	-9.535007E-5
631.000000	48.775618	-9.949940E-5
632.000000	48.518604	-0.000104
633.000000	48.277851	-0.000106
634.000000	48.168559	-0.000109
635.000000	47.552288	-0.000107
636.000000	47.336259	-0.000105
637.000000	47.058920	-0.000104
638.000000	46.775610	-0.000103
639.000000	46.305193	-0.000103
640.000000	46.395230	-0.000102
641.000000	46.059055	-9.907622E-5
642.000000	45.937302	-9.852053E-5
643.000000	45.914501	-9.872250E-5
644.000000	45.765699	-0.000104
645.000000	45.621997	-0.000108
646.000000	45.594363	-0.000111
647.000000	45.367280	-0.000111
648.000000	45.171089	-0.000106
649.000000	45.111859	-0.000102
650.000000	44.813092	-9.856763E-5
651.000000	45.229498	-0.000101
652.000000	44.989081	-0.000106
653.000000	45.276354	-0.000110
654.000000	45.138847	-0.000113
655.000000	44.870910	-0.000109
656.000000	44.799687	-0.000104
657.000000	44.866826	-0.000102
658.000000	44.811762	-0.000100
659.000000	44.967916	-0.000106
660.000000	45.051827	-0.000115
661.000000	45.250031	-0.000120
662.000000	45.082755	-0.000121
663.000000	45.171241	-0.000115
664.000000	44.878666	-0.000103
665.000000	44.898149	-9.800176E-5
666.000000	45.567391	-0.000102
667.000000	45.496122	-0.000110
668.000000	45.419817	-0.000119
669.000000	45.498984	-0.000125
670.000000	45.395296	-0.000121
671.000000	45.227039	-0.000111
672.000000	45.516211	-0.000108
673.000000	45.528907	-0.000106
674.000000	45.473658	-0.000107
675.000000	45.899376	-0.000118
676.000000	45.803617	-0.000122
677.000000	45.827044	-0.000121
678.000000	45.939608	-0.000121
679.000000	45.433145	-0.000111
680.000000	45.639198	-0.000106
681.000000	45.685345	-0.000112
682.000000	46.021104	-0.000120
683.000000	45.766363	-0.000123
684.000000	46.086769	-0.000126
685.000000	45.660233	-0.000123
686.000000	45.387340	-0.000110
687.000000	45.905010	-0.000109
688.000000	46.029449	-0.000117
689.000000	46.037845	-0.000121
690.000000	46.059275	-0.000127
691.000000	45.860926	-0.000129
692.000000	46.085533	-0.000123
693.000000	46.065242	-0.000116
694.000000	46.060082	-0.000110
695.000000	46.282557	-0.000109
696.000000	46.357428	-0.000116
697.000000	46.633789	-0.000125
698.000000	46.616661	-0.000130
699.000000	46.725608	-0.000125
700.000000	46.912010	-0.000121
701.000000	46.747767	-0.000118
702.000000	46.612077	-0.000112
703.000000	47.112886	-0.000117
704.000000	47.097380	-0.000128
705.000000	46.986088	-0.000130
706.000000	47.254732	-0.000125
707.000000	47.246163	-0.000125
708.000000	47.199727	-0.000123
709.000000	47.063968	-0.000111
710.000000	47.286960	-0.000112
711.000000	47.728911	-0.000133
712.000000	47.470872	-0.000141
713.000000	47.325333	-0.000132
714.000000	47.143044	-0.000121
715.000000	47.124352	-0.000113
716.000000	47.716636	-0.000116
717.000000	47.384771	-0.000118
718.000000	46.959178	-0.000124
719.000000	47.440044	-0.000131
720.000000	47.324990	-0.000131
721.000000	47.593878	-0.000130
722.000000	47.576339	-0.000124
723.000000	47.411400	-0.000116
724.000000	47.473530	-0.000118
725.000000	47.656869	-0.000125
726.000000	47.842479	-0.000129
727.000000	47.814172	-0.000133
728.000000	47.939761	-0.000131
729.000000	47.742760	-0.000125
730.000000	47.681261	-0.000119
731.000000	47.691432	-0.000118
732.000000	47.776862	-0.000119
733.000000	47.795264	-0.000125
734.000000	47.979245	-0.000131
735.000000	47.963342	-0.000129
736.000000	48.047325	-0.000127
737.000000	48.052118	-0.000123
738.000000	48.158093	-0.000119
739.000000	48.173586	-0.000119
740.000000	48.168018	-0.000121
741.000000	48.225086	-0.000124
742.000000	48.437527	-0.000127
743.000000	48.213626	-0.000124
744.000000	48.172077	-0.000118
745.000000	48.217278	-0.000116
746.000000	48.444444	-0.000113
747.000000	48.447068	-0.000114
748.000000	48.474546	-0.000118
749.000000	48.536002	-0.000118
750.000000	48.366568	-0.000118
751.000000	48.437410	-0.000115
752.000000	48.375179	-0.000110
753.000000	48.371035	-0.000107
754.000000	48.490242	-0.000105
755.000000	48.522980	-0.000106
756.000000	48.675802	-0.000109
757.000000	48.442201	-0.000108
758.000000	48.444172	-0.000106
759.000000	48.422039	-0.000104
760.000000	48.394102	-0.000100
761.000000	48.729709	-9.725866E-5
762.000000	48.572135	-9.616090E-5
763.000000	48.553033	-9.767006E-5
764.000000	48.595081	-9.958429E-5
765.000000	48.431384	-9.910391E-5
766.000000	48.441908	-9.701092E-5
767.000000	48.241163	-9.437575E-5
768.000000	48.417320	-9.181982E-5
769.000000	48.276507	-8.980511E-5
770.000000	48.422340	-9.041704E-5
771.000000	48.387305	-9.151676E-5
772.000000	48.531809	-9.300674E-5
773.000000	48.431687	-9.203285E-5
774.000000	48.335754	-8.941105E-5
775.000000	48.305433	-8.574139E-5
776.000000	48.605297	-8.349813E-5
777.000000	48.304242	-8.339879E-5
778.000000	48.461844	-8.594498E-5
779.000000	48.399812	-8.806185E-5
780.000000	48.418533	-8.868065E-5
781.000000	48.220662	-8.626303E-5
782.000000	48.240619	-8.302063E-5
783.000000	48.386127	-8.052369E-5
784.000000	48.461358	-8.003301E-5
785.000000	48.184894	-8.184584E-5
786.000000	48.267231	-8.349344E-5
787.000000	48.196896	-8.398634E-5
788.000000	48.116059	-8.295805E-5
789.000000	48.013457	-7.939869E-5
790.000000	48.107985	-7.689356E-5
791.000000	48.104984	-7.586128E-5
792.000000	48.376815	-7.748623E-5
793.000000	48.110174	-7.971933E-5
794.000000	48.140497	-8.282858E-5
795.000000	47.994656	-8.392402E-5
796.000000	47.836684	-8.032988E-5
797.000000	48.134663	-7.792221E-5
798.000000	48.007649	-7.708077E-5
799.000000	48.141423	-7.825383E-5
800.000000	48.086162	-8.138147E-5
801.000000	47.938767	-8.499100E-5
802.000000	47.692908	-8.564666E-5
803.000000	47.755833	-8.342721E-5
804.000000	47.789507	-7.930223E-5
805.000000	47.867636	-7.641492E-5
806.000000	48.024631	-7.592858E-5
807.000000	47.924777	-7.808457E-5
808.000000	47.892909	-8.245127E-5
809.000000	47.756872	-8.367903E-5
810.000000	47.594258	-8.126412E-5
811.000000	47.594515	-7.859329E-5
812.000000	47.709661	-7.435947E-5
813.000000	47.682147	-7.214308E-5
814.000000	47.491437	-7.391755E-5
815.000000	47.582103	-7.682864E-5
816.000000	47.446860	-8.043244E-5
817.000000	47.368013	-8.048163E-5
818.000000	47.340383	-7.573749E-5
819.000000	47.417583	-7.179080E-5
820.000000	47.398167	-6.975592E-5
821.000000	47.292681	-7.028824E-5
822.000000	47.348495	-7.392302E-5
823.000000	47.289880	-7.775301E-5
824.000000	47.271978	-7.905903E-5
825.000000	47.235752	-7.703713E-5
826.000000	47.423102	-7.340505E-5
827.000000	47.138382	-7.132894E-5
828.000000	47.228956	-7.214468E-5
829.000000	47.289621	-7.386493E-5
830.000000	47.283884	-7.647803E-5
831.000000	47.073887	-7.824510E-5
832.000000	46.881164	-7.712904E-5
833.000000	47.033806	-7.450016E-5
834.000000	46.924701	-7.093362E-5
835.000000	47.023938	-6.870283E-5
836.000000	46.994278	-6.969130E-5
837.000000	46.894803	-7.209867E-5
838.000000	46.817256	-7.357897E-5
839.000000	46.701222	-7.390155E-5
840.000000	46.819046	-7.302502E-5
841.000000	46.707029	-6.994558E-5
842.000000	46.851397	-6.820663E-5
843.000000	46.887465	-6.920083E-5
844.000000	46.820462	-7.093159E-5
845.000000	46.680714	-7.201119E-5
846.000000	46.669891	-7.234275E-5
847.000000	46.634899	-7.129254E-5
848.000000	46.641519	-6.827687E-5
849.000000	46.676977	-6.556891E-5
850.000000	46.641668	-6.556646E-5
851.000000	46.594858	-6.653351E-5
852.000000	46.489950	-6.701273E-5
853.000000	46.530319	-6.782627E-5
854.000000	46.448431	-6.677047E-5
855.000000	46.350820	-6.424711E-5
856.000000	46.379310	-6.220277E-5
857.000000	46.510743	-6.122455E-5
858.000000	46.439660	-6.148476E-5
859.000000	46.394664	-6.218246E-5
860.000000	46.547759	-6.181226E-5
861.000000	46.441682	-5.988090E-5
862.000000	46.440987	-5.737005E-5
863.000000	46.410168	-5.475042E-5
864.000000	46.434631	-5.376406E-5
865.000000	46.385400	-5.361656E-5
866.000000	46.363387	-5.280630E-5
867.000000	46.346415	-5.274801E-5
868.000000	46.190574	-5.143563E-5
869.000000	46.155387	-4.891762E-5
870.000000	46.272702	-4.777404E-5
871.000000	46.119750	-4.659422E-5
872.000000	45.940383	-4.581600E-5
873.000000	45.848652	-4.592051E-5
874.000000	45.679061	-4.522932E-5
875.000000	45.730550	-4.408623E-5
876.000000	45.456669	-4.258492E-5
877.000000	45.320184	-4.113387E-5
878.000000	45.156692	-4.038438E-5
879.000000	45.078593	-3.980955E-5
880.000000	44.733855	-3.912192E-5
881.000000	44.714296	-3.893863E-5
882.000000	44.535420	-3.803321E-5
883.000000	44.177005	-3.715534E-5
884.000000	43.991741	-3.655774E-5
885.000000	43.794655	-3.539426E-5
886.000000	43.522542	-3.445997E-5
887.000000	43.073380	-3.426881E-5
888.000000	42.589267	-3.386105E-5
889.000000	42.221184	-3.328732E-5
890.000000	41.778679	-3.262183E-5
891.000000	41.298827	-3.173400E-5
892.000000	40.811597	-3.084491E-5
893.000000	40.243344	-3.033806E-5
894.000000	39.777820	-3.038218E-5
895.000000	38.887760	-2.974779E-5
896.000000	38.223227	-2.882660E-5
897.000000	37.286192	-2.813611E-5
898.000000	36.620634	-2.746669E-5
899.000000	35.903373	-2.681547E-5
900.000000	35.124708	-2.619986E-5
901.000000	34.200597	-2.534837E-5
902.000000	33.141048	-2.473185E-5
903.000000	32.203984	-2.384006E-5
904.000000	31.137232	-2.294349E-5
905.000000	30.111911	-2.245580E-5
906.000000	29.136060	-2.151438E-5
907.000000	28.048985	-2.070093E-5
908.000000	27.000708	-1.992756E-5
909.000000	26.001372	-1.905383E-5
910.000000	24.887432	-1.833635E-5
911.000000	23.767671	-1.749118E-5
912.000000	22.784729	-1.681105E-5
913.000000	21.792419	-1.621362E-5
914.000000	20.769708	-1.536700E-5
915.000000	19.784684	-1.461777E-5
916.000000	18.745496	-1.374562E-5
917.000000	17.794327	-1.287962E-5
918.000000	16.877305	-1.240209E-5
919.000000	16.010850	-1.176095E-5
920.000000	15.130964	-1.094395E-5
921.000000	14.314969	-1.042391E-5
922.000000	13.572622	-9.817645E-6
923.000000	12.810935	-9.155731E-6
924.000000	12.094503	-8.689150E-6
925.000000	11.458213	-8.140290E-6
926.000000	10.736123	-7.705052E-6
927.000000	10.155886	-7.303694E-6
928.000000	9.549789	-6.814647E-6
929.000000	8.977820	-6.412189E-6
930.000000	8.452401	-5.902539E-6
931.000000	7.926481	-5.437532E-6
932.000000	7.466336	-5.116450E-6
933.000000	7.016492	-4.747474E-6
934.000000	6.572235	-4.458619E-6
935.000000	6.193984	-4.178938E-6
936.000000	5.783785	-3.855271E-6
937.000000	5.444744	-3.646361E-6
938.000000	5.108332	-3.380401E-6
939.000000	4.790100	-3.136586E-6
940.000000	4.496690	-2.976173E-6
941.000000	4.211285	-2.770146E-6
942.000000	3.941189	-2.601977E-6
943.000000	3.701595	-2.431948E-6
944.000000	3.473217	-2.222002E-6
945.000000	3.248294	-2.057625E-6
946.000000	3.043719	-1.900575E-6
947.000000	2.847471	-1.753051E-6
948.000000	2.668977	-1.656208E-6
949.000000	2.495234	-1.541836E-6
950.000000	2.334861	-1.432344E-6
951.000000	2.194164	-1.340371E-6
952.000000	2.040519	-1.226848E-6
953.000000	1.908273	-1.147976E-6
954.000000	1.784583	-1.075171E-6
955.000000	1.671542	-9.951751E-7
956.000000	1.565187	-9.394384E-7
957.000000	1.461916	-8.682750E-7
958.000000	1.366355	-7.970187E-7
959.000000	1.279740	-7.377763E-7
960.000000	1.196136	-6.726116E-7
961.000000	1.117374	-6.235059E-7
962.000000	1.046805	-5.827562E-7
963.000000	0.978178	-5.406644E-7
964.000000	0.915703	-5.106819E-7
965.000000	0.856585	-4.717641E-7
966.000000	0.799965	-4.349645E-7
967.000000	0.747946	-4.066515E-7
968.000000	0.699651	-3.764050E-7
969.000000	0.653252	-3.514419E-7
970.000000	0.612307	-3.280823E-7
971.000000	0.572556	-3.011359E-7
972.000000	0.535604	-2.783817E-7
973.000000	0.501212	-2.554685E-7
974.000000	0.469548	-2.337140E-7
975.000000	0.439915	-2.167296E-7
976.000000	0.411210	-2.001877E-7
977.000000	0.385833	-1.874298E-7
978.000000	0.361251	-1.761900E-7
979.000000	0.337919	-1.641399E-7
980.000000	0.316931	-1.534681E-7
981.000000	0.296494	-1.424243E-7
982.000000	0.278298	-1.329234E-7
983.000000	0.261790	-1.254845E-7
984.000000	0.246051	-1.174453E-7
985.000000	0.229301	-1.083705E-7
986.000000	0.216307	-1.009660E-7
987.000000	0.202477	-9.243030E-8
988.000000	0.190465	-8.559300E-8
989.000000	0.178966	-7.955917E-8
990.000000	0.168024	-7.370863E-8
991.000000	0.157932	-6.946972E-8
992.000000	0.148466	-6.577871E-8
993.000000	0.140039	-6.249998E-8
994.000000	0.131997	-5.961500E-8
995.000000	0.124295	-5.639996E-8
996.000000	0.117256	-5.324465E-8
997.000000	0.110219	-5.022638E-8
998.000000	0.103966	-4.725607E-8
