Wavelength (nm)	EQE (%)	Current (A)	Dark Current (A) -> 	-60.727818000E-12	
400.000000	55.608236	-1.690804E-6
401.000000	59.032695	-2.523628E-6
402.000000	59.441510	-3.900675E-6
403.000000	59.747260	-5.683691E-6
404.000000	58.853177	-7.762843E-6
405.000000	58.823323	-9.766099E-6
406.000000	59.564048	-1.286717E-5
407.000000	59.191564	-1.357314E-5
408.000000	58.627833	-1.459443E-5
409.000000	58.535601	-1.544245E-5
410.000000	58.218497	-1.618041E-5
411.000000	58.367944	-2.117117E-5
412.000000	57.550457	-2.416971E-5
413.000000	58.179134	-3.213354E-5
414.000000	57.732603	-3.640368E-5
415.000000	57.656886	-3.648920E-5
416.000000	57.518329	-3.398631E-5
417.000000	56.979826	-2.966562E-5
418.000000	55.559700	-1.888207E-5
419.000000	55.419412	-1.389507E-5
420.000000	56.727487	-1.461215E-5
421.000000	56.202773	-1.570261E-5
422.000000	55.745414	-1.412721E-5
423.000000	55.959319	-1.479573E-5
424.000000	55.711328	-1.642059E-5
425.000000	55.315334	-1.765371E-5
426.000000	55.624799	-1.858793E-5
427.000000	55.344025	-1.941200E-5
428.000000	54.831962	-2.141269E-5
429.000000	54.402222	-2.393422E-5
430.000000	54.177320	-2.544479E-5
431.000000	53.909346	-2.603040E-5
432.000000	53.546647	-2.573453E-5
433.000000	54.127124	-2.647628E-5
434.000000	53.712375	-2.884703E-5
435.000000	53.234055	-2.945599E-5
436.000000	53.405834	-2.964448E-5
437.000000	53.519528	-3.227322E-5
438.000000	53.424380	-3.311410E-5
439.000000	52.987680	-3.278369E-5
440.000000	53.314331	-3.323275E-5
441.000000	53.706954	-3.630959E-5
442.000000	53.595882	-3.528038E-5
443.000000	53.084760	-3.388709E-5
444.000000	53.105378	-3.377312E-5
445.000000	53.202522	-3.298517E-5
446.000000	53.686113	-3.283471E-5
447.000000	53.974240	-3.690306E-5
448.000000	52.793118	-4.038831E-5
449.000000	53.371374	-3.730118E-5
450.000000	53.580798	-3.569369E-5
451.000000	54.138593	-3.934386E-5
452.000000	53.616711	-4.105075E-5
453.000000	52.879608	-3.875324E-5
454.000000	52.914631	-3.509121E-5
455.000000	53.765594	-3.597130E-5
456.000000	54.435332	-4.178056E-5
457.000000	54.249784	-4.596178E-5
458.000000	54.219792	-4.700965E-5
459.000000	54.653649	-4.448428E-5
460.000000	54.807541	-4.140085E-5
461.000000	54.438837	-3.837229E-5
462.000000	55.014655	-3.731698E-5
463.000000	55.769446	-3.758089E-5
464.000000	55.448230	-3.809129E-5
465.000000	55.097467	-3.937073E-5
466.000000	54.654985	-3.613131E-5
467.000000	54.007938	-2.939296E-5
468.000000	55.196982	-3.000360E-5
469.000000	56.387415	-3.847106E-5
470.000000	55.892132	-3.862838E-5
471.000000	54.847091	-2.976569E-5
472.000000	56.005245	-2.959113E-5
473.000000	56.717819	-3.975286E-5
474.000000	55.568317	-3.972507E-5
475.000000	54.868939	-3.111947E-5
476.000000	55.371424	-3.080790E-5
477.000000	55.591473	-3.566272E-5
478.000000	55.321500	-3.301970E-5
479.000000	56.440046	-3.327351E-5
480.000000	56.444123	-3.939438E-5
481.000000	55.681035	-3.732766E-5
482.000000	54.617941	-2.732647E-5
483.000000	56.261510	-2.990673E-5
484.000000	56.498549	-3.583398E-5
485.000000	55.464567	-3.082655E-5
486.000000	55.647991	-2.947091E-5
487.000000	56.949673	-3.409139E-5
488.000000	55.989146	-3.290364E-5
489.000000	55.198676	-2.951681E-5
490.000000	56.483182	-3.340582E-5
491.000000	56.354654	-3.625508E-5
492.000000	56.635414	-3.978787E-5
493.000000	56.011526	-4.128116E-5
494.000000	55.315975	-3.763658E-5
495.000000	56.309441	-3.803496E-5
496.000000	55.231857	-4.272623E-5
497.000000	55.619432	-4.398424E-5
498.000000	55.192280	-4.062435E-5
499.000000	55.717211	-4.034386E-5
500.000000	56.281326	-4.546244E-5
501.000000	56.735546	-5.244457E-5
502.000000	55.647832	-4.948776E-5
503.000000	55.979525	-4.794648E-5
504.000000	56.361962	-5.569007E-5
505.000000	56.156538	-6.013333E-5
506.000000	55.742787	-5.480160E-5
507.000000	54.396465	-4.546847E-5
508.000000	55.010809	-4.493596E-5
509.000000	55.508791	-4.450885E-5
510.000000	54.863764	-3.931521E-5
511.000000	55.013164	-3.736296E-5
512.000000	55.691713	-4.245620E-5
513.000000	55.615064	-4.922113E-5
514.000000	56.235880	-5.725124E-5
515.000000	55.498730	-6.804516E-5
516.000000	55.979523	-8.719612E-5
517.000000	56.222076	-9.442523E-5
518.000000	55.209998	-8.045742E-5
519.000000	54.215118	-6.767640E-5
520.000000	54.862906	-6.193780E-5
521.000000	53.421276	-4.706893E-5
522.000000	53.826535	-3.915721E-5
523.000000	54.164611	-3.837430E-5
524.000000	56.161601	-5.108162E-5
525.000000	55.835053	-6.849158E-5
526.000000	55.516115	-7.335321E-5
527.000000	55.531611	-8.106682E-5
528.000000	55.371689	-8.767639E-5
529.000000	54.802267	-8.193123E-5
530.000000	53.476157	-6.234333E-5
531.000000	53.617706	-4.626992E-5
532.000000	53.647369	-3.886180E-5
533.000000	54.284032	-4.231373E-5
534.000000	54.228612	-4.545298E-5
535.000000	54.726143	-5.962266E-5
536.000000	55.220911	-8.184053E-5
537.000000	54.254560	-7.536052E-5
538.000000	53.110023	-6.023936E-5
539.000000	53.531468	-6.023065E-5
540.000000	52.664081	-4.804874E-5
541.000000	52.886889	-4.333431E-5
542.000000	53.469300	-4.415835E-5
543.000000	53.460619	-5.275189E-5
544.000000	53.923240	-6.950822E-5
545.000000	53.599937	-7.180944E-5
546.000000	53.008138	-6.655054E-5
547.000000	53.569072	-6.604391E-5
548.000000	52.380954	-5.089930E-5
549.000000	52.151102	-4.128003E-5
550.000000	52.007143	-4.099097E-5
551.000000	52.780647	-4.532064E-5
552.000000	53.282327	-6.101752E-5
553.000000	53.144590	-7.067089E-5
554.000000	52.922729	-7.388393E-5
555.000000	52.737966	-7.449419E-5
556.000000	52.069875	-6.208934E-5
557.000000	52.054583	-5.026723E-5
558.000000	52.136386	-4.844069E-5
559.000000	52.371812	-5.376240E-5
560.000000	52.425343	-6.527823E-5
561.000000	52.583068	-7.271114E-5
562.000000	51.920979	-6.717309E-5
563.000000	51.763187	-6.688699E-5
564.000000	51.606578	-5.528282E-5
565.000000	50.861722	-4.458923E-5
566.000000	50.666340	-4.565310E-5
567.000000	50.998739	-4.948873E-5
568.000000	51.241707	-6.057534E-5
569.000000	51.215577	-6.603127E-5
570.000000	50.964660	-6.337487E-5
571.000000	50.753292	-5.913095E-5
572.000000	50.694045	-5.123699E-5
573.000000	50.490650	-4.317180E-5
574.000000	50.944942	-4.505411E-5
575.000000	50.806709	-5.401329E-5
576.000000	51.082799	-6.883618E-5
577.000000	50.567263	-7.400040E-5
578.000000	50.421374	-7.578953E-5
579.000000	50.387399	-6.906354E-5
580.000000	49.776738	-5.551688E-5
581.000000	49.998944	-5.050850E-5
582.000000	50.069191	-4.876417E-5
583.000000	50.027997	-5.647778E-5
584.000000	50.205127	-6.883348E-5
585.000000	49.731145	-7.060746E-5
586.000000	49.533598	-6.776398E-5
587.000000	49.312927	-6.200061E-5
588.000000	48.941846	-5.156608E-5
589.000000	49.348917	-4.960212E-5
590.000000	49.546186	-5.140697E-5
591.000000	50.293643	-7.499527E-5
592.000000	50.270408	-7.583934E-5
593.000000	49.733667	-7.581622E-5
594.000000	49.455993	-7.293312E-5
595.000000	49.771601	-7.066682E-5
596.000000	49.940007	-7.075338E-5
597.000000	50.224324	-7.227973E-5
598.000000	50.963143	-7.794789E-5
599.000000	50.549567	-8.400629E-5
600.000000	50.551076	-8.877250E-5
601.000000	50.489891	-9.338380E-5
602.000000	50.231690	-9.409845E-5
603.000000	49.911483	-9.288240E-5
604.000000	49.445710	-8.974921E-5
605.000000	49.559533	-8.629776E-5
606.000000	49.743777	-8.701557E-5
607.000000	50.061811	-8.802969E-5
608.000000	50.864408	-9.324071E-5
609.000000	51.055955	-9.979550E-5
610.000000	51.013040	-0.000103
611.000000	51.329995	-0.000108
612.000000	50.972002	-0.000109
613.000000	50.569532	-0.000107
614.000000	49.937201	-0.000102
615.000000	50.380632	-9.738362E-5
616.000000	50.851312	-9.715895E-5
617.000000	51.175013	-9.979695E-5
618.000000	52.050293	-0.000107
619.000000	52.105685	-0.000113
620.000000	51.989261	-0.000116
621.000000	52.125966	-0.000120
622.000000	51.755753	-0.000123
623.000000	51.735661	-0.000127
624.000000	51.663774	-0.000132
625.000000	52.500291	-0.000142
626.000000	50.419538	-0.000134
627.000000	51.117963	-0.000133
628.000000	51.728739	-0.000132
629.000000	51.798662	-0.000133
630.000000	52.069400	-0.000135
631.000000	52.494106	-0.000141
632.000000	52.414792	-0.000148
633.000000	52.529079	-0.000152
634.000000	52.360387	-0.000157
635.000000	52.160904	-0.000158
636.000000	52.201462	-0.000156
637.000000	52.300565	-0.000157
638.000000	52.232790	-0.000157
639.000000	52.339327	-0.000158
640.000000	52.306553	-0.000157
641.000000	52.440738	-0.000153
642.000000	52.347649	-0.000153
643.000000	52.411931	-0.000155
644.000000	52.809341	-0.000162
645.000000	53.045775	-0.000172
646.000000	52.812339	-0.000177
647.000000	52.540570	-0.000176
648.000000	52.126954	-0.000168
649.000000	52.292825	-0.000162
650.000000	52.241936	-0.000158
651.000000	52.824238	-0.000161
652.000000	52.771371	-0.000170
653.000000	52.375858	-0.000176
654.000000	52.208626	-0.000179
655.000000	51.853793	-0.000173
656.000000	51.740221	-0.000163
657.000000	51.732572	-0.000159
658.000000	51.762623	-0.000156
659.000000	52.345557	-0.000162
660.000000	52.320378	-0.000176
661.000000	51.810802	-0.000185
662.000000	51.254010	-0.000186
663.000000	50.612569	-0.000176
664.000000	50.199445	-0.000157
665.000000	51.284314	-0.000147
666.000000	51.883761	-0.000151
667.000000	52.458733	-0.000164
668.000000	52.255039	-0.000178
669.000000	51.857999	-0.000185
670.000000	51.237209	-0.000181
671.000000	51.135305	-0.000168
672.000000	51.531704	-0.000161
673.000000	51.756666	-0.000158
674.000000	52.301769	-0.000160
675.000000	52.773229	-0.000173
676.000000	52.414679	-0.000184
677.000000	52.002333	-0.000184
678.000000	52.059688	-0.000182
679.000000	52.146667	-0.000171
680.000000	52.615577	-0.000163
681.000000	53.583313	-0.000170
682.000000	53.650877	-0.000184
683.000000	53.513392	-0.000195
684.000000	53.560764	-0.000199
685.000000	53.357735	-0.000196
686.000000	52.968453	-0.000180
687.000000	53.840163	-0.000172
688.000000	54.843683	-0.000185
689.000000	55.069530	-0.000197
690.000000	55.263357	-0.000207
691.000000	55.142567	-0.000213
692.000000	54.987910	-0.000207
693.000000	54.952209	-0.000195
694.000000	55.368812	-0.000188
695.000000	55.846698	-0.000192
696.000000	56.060852	-0.000207
697.000000	55.905491	-0.000225
698.000000	55.631202	-0.000237
699.000000	55.212045	-0.000233
700.000000	55.222931	-0.000221
701.000000	55.385903	-0.000214
702.000000	55.752203	-0.000211
703.000000	56.418955	-0.000224
704.000000	56.384739	-0.000248
705.000000	55.867966	-0.000260
706.000000	55.136588	-0.000250
707.000000	55.070231	-0.000239
708.000000	55.281891	-0.000231
709.000000	55.236089	-0.000217
710.000000	55.733892	-0.000221
711.000000	56.045243	-0.000252
712.000000	55.151963	-0.000272
713.000000	54.660950	-0.000263
714.000000	54.631121	-0.000243
715.000000	54.361119	-0.000221
716.000000	54.662959	-0.000215
717.000000	54.705556	-0.000221
718.000000	54.677079	-0.000235
719.000000	54.670058	-0.000251
720.000000	54.089286	-0.000252
721.000000	53.609831	-0.000243
722.000000	53.352521	-0.000228
723.000000	53.106999	-0.000209
724.000000	53.552182	-0.000207
725.000000	53.346262	-0.000216
726.000000	53.169417	-0.000227
727.000000	52.828287	-0.000233
728.000000	52.275444	-0.000228
729.000000	51.922948	-0.000213
730.000000	51.824220	-0.000198
731.000000	51.608019	-0.000191
732.000000	51.573407	-0.000193
733.000000	51.211868	-0.000201
734.000000	50.743893	-0.000209
735.000000	49.849428	-0.000205
736.000000	49.303650	-0.000196
737.000000	48.815128	-0.000186
738.000000	48.276060	-0.000176
739.000000	47.687254	-0.000173
740.000000	47.109317	-0.000174
741.000000	46.548725	-0.000177
742.000000	45.583581	-0.000177
743.000000	44.823560	-0.000171
744.000000	44.025198	-0.000160
745.000000	43.117537	-0.000151
746.000000	42.160459	-0.000145
747.000000	41.315976	-0.000143
748.000000	40.486066	-0.000145
749.000000	39.418105	-0.000144
750.000000	38.536570	-0.000140
751.000000	37.312446	-0.000134
752.000000	36.073961	-0.000124
753.000000	35.046702	-0.000116
754.000000	33.968020	-0.000111
755.000000	32.873168	-0.000108
756.000000	31.726764	-0.000107
757.000000	30.485158	-0.000104
758.000000	29.343925	-9.876658E-5
759.000000	28.174123	-9.317389E-5
760.000000	26.985245	-8.637045E-5
761.000000	25.773997	-7.988620E-5
762.000000	24.553516	-7.580724E-5
763.000000	23.507411	-7.373538E-5
764.000000	22.438208	-7.191748E-5
765.000000	21.258544	-6.893586E-5
766.000000	20.190686	-6.484589E-5
767.000000	19.091906	-5.997491E-5
768.000000	18.105523	-5.517254E-5
769.000000	17.148201	-5.164411E-5
770.000000	16.219063	-4.951590E-5
771.000000	15.339342	-4.804394E-5
772.000000	14.496266	-4.634001E-5
773.000000	13.642201	-4.372372E-5
774.000000	12.821976	-4.031002E-5
775.000000	12.029314	-3.659751E-5
776.000000	11.326859	-3.365430E-5
777.000000	10.735931	-3.208892E-5
778.000000	10.128593	-3.146306E-5
779.000000	9.533583	-3.089243E-5
780.000000	8.965568	-2.962141E-5
781.000000	8.401433	-2.741475E-5
782.000000	7.907625	-2.488510E-5
783.000000	7.446386	-2.279455E-5
784.000000	7.048519	-2.155453E-5
785.000000	6.654914	-2.117685E-5
786.000000	6.273325	-2.079565E-5
787.000000	5.918385	-2.001877E-5
788.000000	5.551852	-1.873089E-5
789.000000	5.244030	-1.697209E-5
790.000000	4.947271	-1.537042E-5
791.000000	4.676242	-1.436488E-5
792.000000	4.446342	-1.403280E-5
793.000000	4.212788	-1.399544E-5
794.000000	4.002363	-1.387120E-5
795.000000	3.774322	-1.323172E-5
796.000000	3.561271	-1.193544E-5
797.000000	3.380492	-1.075559E-5
798.000000	3.227385	-1.007128E-5
799.000000	3.075152	-9.738077E-6
800.000000	2.937391	-9.780270E-6
801.000000	2.798511	-9.844041E-6
802.000000	2.651893	-9.486219E-6
803.000000	2.516820	-8.684683E-6
804.000000	2.387093	-7.713468E-6
805.000000	2.284236	-6.987284E-6
806.000000	2.188999	-6.643062E-6
807.000000	2.107565	-6.687956E-6
808.000000	2.022412	-6.884527E-6
809.000000	1.927004	-6.838202E-6
810.000000	1.835757	-6.420539E-6
811.000000	1.747692	-5.855164E-6
812.000000	1.668020	-5.281218E-6
813.000000	1.607171	-4.944798E-6
814.000000	1.553329	-4.967569E-6
815.000000	1.490535	-5.088332E-6
816.000000	1.433620	-5.192241E-6
817.000000	1.365690	-5.008103E-6
818.000000	1.298493	-4.492197E-6
819.000000	1.245010	-3.998273E-6
820.000000	1.202357	-3.716574E-6
821.000000	1.162670	-3.668954E-6
822.000000	1.121676	-3.815358E-6
823.000000	1.080365	-3.957749E-6
824.000000	1.033152	-3.868227E-6
825.000000	0.983544	-3.573821E-6
826.000000	0.942882	-3.247168E-6
827.000000	0.910495	-3.024360E-6
828.000000	0.878541	-2.966701E-6
829.000000	0.850333	-3.023622E-6
830.000000	0.822888	-3.118987E-6
831.000000	0.792086	-3.143999E-6
832.000000	0.760168	-3.001514E-6
833.000000	0.729984	-2.734657E-6
834.000000	0.705259	-2.470734E-6
835.000000	0.683794	-2.329159E-6
836.000000	0.663476	-2.323982E-6
837.000000	0.639510	-2.360018E-6
838.000000	0.616916	-2.356456E-6
839.000000	0.592075	-2.280169E-6
840.000000	0.567032	-2.110963E-6
841.000000	0.543433	-1.898131E-6
842.000000	0.524940	-1.770070E-6
843.000000	0.509415	-1.751002E-6
844.000000	0.490615	-1.756814E-6
845.000000	0.472161	-1.757725E-6
846.000000	0.454237	-1.722529E-6
847.000000	0.434238	-1.603634E-6
848.000000	0.416287	-1.435631E-6
849.000000	0.402448	-1.307924E-6
850.000000	0.390255	-1.262768E-6
851.000000	0.376085	-1.256726E-6
852.000000	0.363100	-1.253855E-6
853.000000	0.348802	-1.225855E-6
854.000000	0.333777	-1.145819E-6
855.000000	0.322153	-1.048238E-6
856.000000	0.308379	-9.529602E-7
857.000000	0.298269	-8.962921E-7
858.000000	0.288984	-8.811048E-7
859.000000	0.278420	-8.758522E-7
860.000000	0.266725	-8.376771E-7
861.000000	0.257184	-7.744785E-7
862.000000	0.246195	-7.050168E-7
863.000000	0.237494	-6.453912E-7
864.000000	0.229728	-6.069081E-7
865.000000	0.221569	-5.859340E-7
866.000000	0.214015	-5.723523E-7
867.000000	0.206824	-5.595871E-7
868.000000	0.197697	-5.225661E-7
869.000000	0.189168	-4.667802E-7
870.000000	0.182827	-4.283489E-7
871.000000	0.176665	-4.082251E-7
872.000000	0.170209	-3.940904E-7
873.000000	0.163817	-3.820925E-7
874.000000	0.157283	-3.666321E-7
875.000000	0.151144	-3.447977E-7
876.000000	0.145123	-3.187137E-7
877.000000	0.139629	-2.940678E-7
878.000000	0.134646	-2.764129E-7
879.000000	0.129682	-2.635637E-7
880.000000	0.124669	-2.523901E-7
881.000000	0.120022	-2.426040E-7
882.000000	0.115353	-2.308712E-7
883.000000	0.110652	-2.176772E-7
884.000000	0.105874	-2.031785E-7
885.000000	0.101692	-1.888479E-7
886.000000	0.098108	-1.798231E-7
887.000000	0.094379	-1.747325E-7
888.000000	0.090577	-1.686640E-7
889.000000	0.086785	-1.611773E-7
890.000000	0.083395	-1.530430E-7
891.000000	0.079793	-1.427704E-7
892.000000	0.076650	-1.338719E-7
893.000000	0.073927	-1.290840E-7
894.000000	0.071113	-1.258291E-7
895.000000	0.068188	-1.203140E-7
896.000000	0.065586	-1.158077E-7
897.000000	0.063031	-1.121028E-7
898.000000	0.060231	-1.048247E-7
899.000000	0.057903	-9.803888E-8
900.000000	0.055754	-9.462850E-8
901.000000	0.053480	-9.143680E-8
902.000000	0.051219	-8.776587E-8
903.000000	0.049094	-8.386199E-8
904.000000	0.047298	-8.098434E-8
905.000000	0.045378	-7.807895E-8
906.000000	0.043575	-7.406673E-8
907.000000	0.041921	-7.099288E-8
908.000000	0.040094	-6.826840E-8
909.000000	0.038425	-6.482038E-8
910.000000	0.036835	-6.180952E-8
911.000000	0.035407	-5.950148E-8
912.000000	0.033975	-5.743553E-8
913.000000	0.032628	-5.549300E-8
914.000000	0.031305	-5.294154E-8
915.000000	0.030077	-5.049892E-8
916.000000	0.028739	-4.767091E-8
917.000000	0.027565	-4.523651E-8
918.000000	0.026433	-4.368229E-8
919.000000	0.025359	-4.194870E-8
920.000000	0.024366	-4.022653E-8
921.000000	0.023452	-3.900308E-8
922.000000	0.022440	-3.690503E-8
923.000000	0.021514	-3.480406E-8
924.000000	0.020634	-3.331689E-8
925.000000	0.019757	-3.160114E-8
926.000000	0.018964	-3.034686E-8
927.000000	0.018175	-2.919637E-8
928.000000	0.017467	-2.802269E-8
929.000000	0.016765	-2.685904E-8
930.000000	0.016032	-2.509314E-8
931.000000	0.015389	-2.356605E-8
932.000000	0.014755	-2.242718E-8
933.000000	0.014125	-2.121792E-8
934.000000	0.013607	-2.051364E-8
935.000000	0.013075	-1.991487E-8
936.000000	0.012535	-1.894970E-8
937.000000	0.012007	-1.792761E-8
938.000000	0.011504	-1.677960E-8
939.000000	0.011063	-1.594631E-8
940.000000	0.010623	-1.543575E-8
941.000000	0.010174	-1.474565E-8
942.000000	0.009748	-1.415850E-8
943.000000	0.009369	-1.355790E-8
944.000000	0.008993	-1.275461E-8
945.000000	0.008643	-1.206368E-8
946.000000	0.008278	-1.133787E-8
947.000000	0.007937	-1.068987E-8
948.000000	0.007631	-1.030615E-8
949.000000	0.007322	-9.938676E-9
950.000000	0.007030	-9.553426E-9
951.000000	0.006751	-9.125767E-9
952.000000	0.006489	-8.595440E-9
953.000000	0.006232	-8.154317E-9
954.000000	0.005976	-7.750234E-9
955.000000	0.005747	-7.402196E-9
956.000000	0.005521	-7.162936E-9
957.000000	0.005294	-6.843818E-9
958.000000	0.005085	-6.523179E-9
959.000000	0.004898	-6.211493E-9
960.000000	0.004697	-5.776462E-9
961.000000	0.004518	-5.456024E-9
962.000000	0.004346	-5.227451E-9
963.000000	0.004185	-5.039516E-9
964.000000	0.004019	-4.899556E-9
965.000000	0.003869	-4.682487E-9
966.000000	0.003730	-4.441201E-9
967.000000	0.003587	-4.238634E-9
968.000000	0.003454	-4.004920E-9
969.000000	0.003330	-3.820646E-9
970.000000	0.003201	-3.684256E-9
971.000000	0.003076	-3.551355E-9
972.000000	0.002962	-3.402108E-9
973.000000	0.002857	-3.218307E-9
974.000000	0.002766	-3.039526E-9
975.000000	0.002664	-2.878678E-9
976.000000	0.002572	-2.734110E-9
977.000000	0.002480	-2.644655E-9
978.000000	0.002392	-2.573579E-9
979.000000	0.002310	-2.471292E-9
980.000000	0.002231	-2.375529E-9
981.000000	0.002154	-2.272567E-9
982.000000	0.002084	-2.163316E-9
983.000000	0.002015	-2.074042E-9
984.000000	0.001949	-2.006840E-9
985.000000	0.001881	-1.945637E-9
986.000000	0.001815	-1.871576E-9
987.000000	0.001755	-1.778892E-9
988.000000	0.001697	-1.694468E-9
989.000000	0.001648	-1.616923E-9
990.000000	0.001601	-1.543840E-9
991.000000	0.001548	-1.494928E-9
992.000000	0.001496	-1.458413E-9
993.000000	0.001448	-1.424609E-9
994.000000	0.001402	-1.384048E-9
995.000000	0.001362	-1.333633E-9
996.000000	0.001324	-1.285563E-9
997.000000	0.001287	-1.236672E-9
998.000000	0.001252	-1.193166E-9
999.000000	0.001208	-1.158594E-9
1000.000000	0.001172	-1.126819E-9
1001.000000	0.001141	-1.090311E-9
1002.000000	0.001108	-1.052072E-9
1003.000000	0.001079	-1.009857E-9
1004.000000	0.001051	-9.753084E-10
