Voltage (V)	Current (A)	Current Density (A/m^2)	 Dividing Wavelength (nm) = 420  Light Power Density (W/m^2) = 1076.543839  Total Light Power Density (W/m^2) = 1076.543839	
-0.199831	-0.002357	-294.662875
-0.193151	-0.002373	-296.682875
-0.186439	-0.002350	-293.760000
-0.179698	-0.002337	-292.103000
-0.172994	-0.002337	-292.148250
-0.166282	-0.002343	-292.840750
-0.159573	-0.002363	-295.389750
-0.152833	-0.002355	-294.329500
-0.146128	-0.002344	-293.019375
-0.139419	-0.002344	-292.993375
-0.132739	-0.002345	-293.154500
-0.125964	-0.002362	-295.276375
-0.119288	-0.002345	-293.118000
-0.112584	-0.002354	-294.260375
-0.105880	-0.002334	-291.744625
-0.099168	-0.002333	-291.637625
-0.092426	-0.002317	-289.574875
-0.085718	-0.002337	-292.069125
-0.079015	-0.002322	-290.304125
-0.072330	-0.002319	-289.914875
-0.065561	-0.002321	-290.128625
-0.058884	-0.002317	-289.671875
-0.052181	-0.002333	-291.684000
-0.045469	-0.002321	-290.157750
-0.038760	-0.002315	-289.340875
-0.032023	-0.002318	-289.755000
-0.025316	-0.002297	-287.092625
-0.018607	-0.002311	-288.928625
-0.011937	-0.002309	-288.650125
-0.005157	-0.002293	-286.568625
0.001476	-0.002288	-286.059125
0.008183	-0.002296	-286.997750
0.014887	-0.002296	-287.014625
0.021633	-0.002306	-288.273000
0.028345	-0.002299	-287.358750
0.035016	-0.002287	-285.849875
0.041722	-0.002297	-287.165500
0.048433	-0.002292	-286.453875
0.055181	-0.002292	-286.505625
0.061893	-0.002278	-284.778875
0.068596	-0.002288	-285.989625
0.075268	-0.002296	-287.044750
0.082046	-0.002265	-283.153500
0.088723	-0.002254	-281.701875
0.095433	-0.002273	-284.158625
0.102135	-0.002261	-282.573125
0.108845	-0.002256	-282.004875
0.115588	-0.002266	-283.241125
0.122298	-0.002260	-282.441250
0.128973	-0.002239	-279.908000
0.135680	-0.002248	-280.991750
0.142419	-0.002253	-281.673500
0.149135	-0.002248	-281.050375
0.155842	-0.002229	-278.649250
0.162550	-0.002228	-278.521000
0.169286	-0.002236	-279.459000
0.175991	-0.002234	-279.209125
0.182705	-0.002226	-278.309750
0.189386	-0.002248	-281.035250
0.196096	-0.002206	-275.773500
0.202833	-0.002221	-277.593000
0.209538	-0.002222	-277.764375
0.216255	-0.002198	-274.752750
0.222959	-0.002202	-275.256125
0.229701	-0.002197	-274.670750
0.236409	-0.002198	-274.789875
0.243087	-0.002185	-273.115000
0.249797	-0.002183	-272.866750
0.256532	-0.002183	-272.845250
0.263240	-0.002191	-273.932625
0.269949	-0.002171	-271.333875
0.276659	-0.002166	-270.763125
0.283334	-0.002172	-271.535250
0.290110	-0.002155	-269.398125
0.296783	-0.002177	-272.138625
0.303488	-0.002168	-270.956750
0.310202	-0.002158	-269.761250
0.316945	-0.002151	-268.833875
0.323648	-0.002147	-268.414625
0.330363	-0.002111	-263.860875
0.337042	-0.002140	-267.500500
0.343743	-0.002127	-265.885000
0.350491	-0.002101	-262.624375
0.357191	-0.002122	-265.269500
0.363901	-0.002101	-262.630750
0.370612	-0.002103	-262.931250
0.377354	-0.002067	-258.414625
0.384065	-0.002062	-257.771500
0.390735	-0.002075	-259.431000
0.397440	-0.002067	-258.388875
0.404191	-0.002047	-255.872500
0.410894	-0.002037	-254.602625
0.417599	-0.002023	-252.934000
0.424312	-0.002031	-253.852250
0.431028	-0.002010	-251.258500
0.437762	-0.001992	-248.943250
0.444472	-0.001957	-244.659750
0.451145	-0.001976	-246.985125
0.457853	-0.001960	-245.008375
0.464597	-0.001928	-241.019750
0.471309	-0.001920	-240.048250
0.478018	-0.001900	-237.453000
0.484721	-0.001877	-234.589750
0.491465	-0.001878	-234.763875
0.498180	-0.001859	-232.345125
0.504853	-0.001821	-227.592250
0.511557	-0.001794	-224.232375
0.518262	-0.001769	-221.070750
0.525010	-0.001755	-219.331250
0.531717	-0.001707	-213.326875
0.538422	-0.001669	-208.637625
0.545099	-0.001629	-203.571625
0.551870	-0.001595	-199.429000
0.558548	-0.001550	-193.803125
0.565258	-0.001494	-186.724750
0.571965	-0.001443	-180.361500
0.578674	-0.001390	-173.784500
0.585413	-0.001324	-165.487750
0.592123	-0.001253	-156.608875
0.598806	-0.001167	-145.833625
0.605512	-0.001086	-135.720875
0.612217	-0.000997	-124.614238
0.618929	-0.000905	-113.099675
0.625642	-0.000793	-99.156938
0.632351	-0.000689	-86.148288
0.639087	-0.000578	-72.281013
0.645799	-0.000448	-56.052100
0.652473	-0.000326	-40.740625
0.659176	-0.000191	-23.812638
0.665890	-3.700817E-5	-4.626021
0.672600	0.000115	14.381887
0.679307	0.000272	34.049950
0.686017	0.000436	54.548375
0.692693	0.000610	76.205525
0.699462	0.000795	99.378075
0.706158	0.000975	121.835350
0.712887	0.001167	145.843625
0.719591	0.001369	171.075875
0.726304	0.001573	196.604125
0.733042	0.001784	222.989000
0.739751	0.002000	250.009375
0.746474	0.002222	277.799375
0.753147	0.002447	305.897875
0.759919	0.002679	334.826250
0.766591	0.002915	364.347500
0.773298	0.003156	394.442750
0.780011	0.003400	425.040625
0.786757	0.003653	456.575375
0.793457	0.003904	487.986000
0.800164	0.004161	520.185500
